OOIBase32 Version 2.0.1.2 Data File
++++++++++++++++++++++++++++++++++++
Date: 01-30-2024, 12:25:10
User: Valued Ocean Optics Customer
Spectrometer Serial Number: I2J345
Spectrometer Channel: Master
Integration Time (msec): 100
Spectra Averaged: 1
Boxcar Smoothing: 1
Correct for Electrical Dark: Disabled
Time Normalized: Disabled
Dual-beam Reference: Disabled
Reference Channel: Master
Temperature: Not acquired
Spectrometer Type: S2000
ADC Type: USB2000
Number of Pixels in File: 2048
Graph Title: 
>>>>>Begin Spectral Data<<<<<
367.70	0.000
368.08	169.000
368.46	174.000
368.84	173.000
369.22	171.000
369.60	178.000
369.98	172.000
370.36	173.000
370.74	178.000
371.12	176.000
371.50	176.000
371.88	178.000
372.25	176.000
372.63	180.000
373.01	176.000
373.39	179.000
373.77	176.000
374.15	176.000
374.53	176.667
374.91	179.000
375.29	177.667
375.67	176.000
376.04	174.333
376.42	174.333
376.80	177.000
377.18	178.000
377.56	178.000
377.94	176.333
378.32	175.333
378.69	173.667
379.07	173.333
379.45	174.000
379.83	173.000
380.21	176.333
380.59	179.000
380.96	181.667
381.34	180.000
381.72	179.000
382.10	180.000
382.48	179.333
382.86	180.667
383.23	178.333
383.61	178.667
383.99	179.000
384.37	182.667
384.75	186.000
385.12	189.000
385.50	189.000
385.88	190.667
386.26	190.333
386.63	192.667
387.01	191.667
387.39	191.667
387.77	192.333
388.14	193.667
388.52	192.000
388.90	191.333
389.28	192.000
389.65	194.667
390.03	194.333
390.41	193.333
390.79	194.333
391.16	195.000
391.54	194.000
391.92	194.333
392.30	192.333
392.67	192.000
393.05	186.667
393.43	184.000
393.80	177.667
394.18	176.667
394.56	175.667
394.93	180.000
395.31	183.000
395.69	181.667
396.06	182.000
396.44	180.333
396.82	182.333
397.19	182.000
397.57	179.667
397.95	181.000
398.32	179.333
398.70	179.667
399.08	180.333
399.45	181.333
399.83	183.000
400.21	181.333
400.58	181.000
400.96	180.333
401.34	179.667
401.71	180.667
402.09	179.667
402.46	180.333
402.84	180.333
403.22	182.000
403.59	180.333
403.97	178.667
404.34	177.667
404.72	180.333
405.10	180.667
405.47	181.667
405.85	182.333
406.22	182.000
406.60	182.667
406.97	180.000
407.35	179.667
407.73	176.667
408.10	176.000
408.48	176.667
408.85	179.333
409.23	181.000
409.60	182.333
409.98	179.667
410.35	179.667
410.73	178.000
411.10	177.667
411.48	177.333
411.85	177.000
412.23	179.000
412.60	180.000
412.98	179.000
413.35	178.667
413.73	177.667
414.10	179.667
414.48	181.000
414.85	180.667
415.23	178.000
415.60	176.333
415.98	178.000
416.35	180.667
416.73	180.667
417.10	181.000
417.48	180.000
417.85	181.333
418.23	181.667
418.60	182.333
418.98	181.667
419.35	179.667
419.72	180.000
420.10	178.667
420.47	178.667
420.85	177.000
421.22	178.333
421.60	178.333
421.97	178.000
422.34	178.000
422.72	176.333
423.09	178.333
423.47	178.667
423.84	181.000
424.21	178.000
424.59	177.000
424.96	176.000
425.34	177.333
425.71	176.667
426.08	177.000
426.46	177.333
426.83	178.333
427.20	179.333
427.58	179.333
427.95	179.333
428.32	180.000
428.70	179.333
429.07	179.000
429.44	178.667
429.82	180.667
430.19	181.333
430.56	180.000
430.94	180.000
431.31	180.000
431.68	180.000
432.06	178.667
432.43	180.333
432.80	179.333
433.18	180.667
433.55	178.000
433.92	181.000
434.29	181.000
434.67	183.333
435.04	183.000
435.41	184.333
435.79	182.667
436.16	183.667
436.53	183.667
436.90	185.667
437.28	184.667
437.65	184.000
438.02	183.333
438.39	182.667
438.77	182.333
439.14	182.667
439.51	182.667
439.88	182.333
440.25	183.667
440.63	183.000
441.00	182.667
441.37	181.333
441.74	180.667
442.12	185.333
442.49	196.000
442.86	215.333
443.23	227.667
443.60	237.667
443.98	240.333
444.35	247.000
444.72	249.000
445.09	252.000
445.46	253.333
445.83	252.333
446.21	249.333
446.58	249.667
446.95	252.000
447.32	256.667
447.69	257.333
448.06	260.333
448.43	259.333
448.81	261.000
449.18	257.333
449.55	257.333
449.92	254.000
450.29	252.667
450.66	245.000
451.03	228.333
451.40	205.667
451.77	188.000
452.15	180.667
452.52	178.667
452.89	179.000
453.26	178.667
453.63	180.333
454.00	181.000
454.37	181.333
454.74	180.333
455.11	180.667
455.48	179.333
455.85	181.000
456.22	179.667
456.59	181.000
456.97	179.667
457.34	181.000
457.71	180.000
458.08	179.667
458.45	178.667
458.82	179.667
459.19	180.000
459.56	182.000
459.93	180.667
460.30	182.667
460.67	182.333
461.04	182.000
461.41	179.667
461.78	178.000
462.15	180.000
462.52	181.000
462.89	182.333
463.26	183.000
463.63	181.667
464.00	180.333
464.37	178.667
464.74	179.667
465.11	179.333
465.47	179.667
465.84	180.000
466.21	179.667
466.58	182.333
466.95	189.333
467.32	195.000
467.69	197.000
468.06	195.333
468.43	197.667
468.80	198.333
469.17	199.333
469.54	197.000
469.91	198.667
470.28	198.333
470.64	199.667
471.01	197.333
471.38	198.333
471.75	199.000
472.12	200.667
472.49	201.000
472.86	200.333
473.23	201.333
473.60	201.333
473.96	199.667
474.33	197.000
474.70	193.667
475.07	192.000
475.44	190.000
475.81	185.000
476.17	184.000
476.54	180.000
476.91	180.000
477.28	176.667
477.65	177.333
478.02	178.333
478.38	180.333
478.75	181.333
479.12	182.000
479.49	182.667
479.86	182.667
480.22	183.000
480.59	183.000
480.96	182.000
481.33	183.000
481.70	182.000
482.06	187.333
482.43	187.000
482.80	189.667
483.17	188.667
483.53	189.667
483.90	189.333
484.27	190.667
484.64	191.000
485.00	193.000
485.37	190.667
485.74	192.000
486.11	193.333
486.47	194.000
486.84	194.000
487.21	198.667
487.58	211.667
487.94	229.333
488.31	242.667
488.68	248.333
489.04	252.667
489.41	253.333
489.78	255.667
490.14	253.000
490.51	251.000
490.88	250.667
491.24	249.333
491.61	249.667
491.98	251.333
492.34	254.333
492.71	257.333
493.08	260.667
493.44	260.667
493.81	261.333
494.18	257.667
494.54	255.333
494.91	250.333
495.28	246.333
495.64	240.667
496.01	232.667
496.37	228.667
496.74	250.000
497.11	307.000
497.47	371.000
497.84	422.333
498.21	447.000
498.57	467.000
498.94	476.000
499.30	483.667
499.67	487.000
500.03	492.333
500.40	495.000
500.77	504.333
501.13	512.000
501.50	523.000
501.86	525.000
502.23	533.000
502.59	534.667
502.96	535.667
503.32	530.667
503.69	523.333
504.06	511.333
504.42	493.000
504.79	472.000
505.15	437.667
505.52	370.667
505.88	295.667
506.25	230.667
506.61	205.000
506.98	193.333
507.34	191.667
507.71	191.333
508.07	191.333
508.44	187.333
508.80	183.667
509.17	181.333
509.53	181.000
509.89	183.333
510.26	185.333
510.62	186.000
510.99	182.667
511.35	181.667
511.72	181.333
512.08	182.000
512.45	181.000
512.81	182.667
513.18	183.333
513.54	183.667
513.90	183.333
514.27	182.667
514.63	182.000
515.00	180.000
515.36	180.667
515.72	179.333
516.09	179.333
516.45	179.667
516.82	182.333
517.18	183.667
517.54	182.333
517.91	180.000
518.27	178.667
518.63	178.333
519.00	178.667
519.36	178.000
519.73	181.000
520.09	180.000
520.45	181.333
520.82	179.000
521.18	181.000
521.54	182.000
521.91	184.000
522.27	184.667
522.63	183.333
523.00	183.333
523.36	181.000
523.72	181.333
524.08	181.333
524.45	182.333
524.81	184.000
525.17	182.333
525.54	186.333
525.90	186.000
526.26	186.000
526.63	182.000
526.99	181.667
527.35	184.333
527.71	183.333
528.08	181.000
528.44	177.667
528.80	179.000
529.16	179.667
529.53	181.000
529.89	181.667
530.25	181.667
530.61	181.667
530.98	181.333
531.34	184.000
531.70	184.000
532.06	183.333
532.42	182.667
532.79	181.667
533.15	182.667
533.51	180.667
533.87	181.333
534.23	182.667
534.60	183.333
534.96	182.000
535.32	178.000
535.68	180.333
536.04	181.333
536.40	182.000
536.77	179.000
537.13	178.667
537.49	178.333
537.85	179.000
538.21	180.000
538.57	180.667
538.93	181.000
539.30	180.667
539.66	181.000
540.02	179.667
540.38	178.667
540.74	178.000
541.10	181.000
541.46	181.667
541.82	181.667
542.18	179.667
542.55	179.333
542.91	179.333
543.27	181.333
543.63	182.667
543.99	185.667
544.35	182.667
544.71	182.333
545.07	179.000
545.43	182.000
545.79	182.667
546.15	183.333
546.51	180.667
546.87	178.333
547.23	178.333
547.59	181.000
547.95	183.000
548.32	183.333
548.68	182.333
549.04	181.667
549.40	183.667
549.76	183.000
550.12	183.667
550.48	180.667
550.84	180.667
551.20	181.000
551.56	181.000
551.92	183.000
552.28	182.333
552.63	183.333
552.99	182.333
553.35	182.000
553.71	183.000
554.07	182.000
554.43	183.000
554.79	184.333
555.15	185.333
555.51	185.333
555.87	185.667
556.23	185.667
556.59	185.667
556.95	186.333
557.31	186.667
557.67	187.333
558.03	185.667
558.39	184.667
558.74	183.667
559.10	183.667
559.46	183.667
559.82	185.333
560.18	185.000
560.54	186.000
560.90	185.000
561.26	185.333
561.61	186.000
561.97	185.667
562.33	185.333
562.69	186.333
563.05	190.333
563.41	192.333
563.77	190.667
564.12	187.333
564.48	186.333
564.84	186.667
565.20	186.000
565.56	187.000
565.92	187.333
566.27	188.333
566.63	186.000
566.99	186.333
567.35	187.333
567.71	188.333
568.06	187.667
568.42	186.000
568.78	187.000
569.14	188.000
569.50	186.333
569.85	185.667
570.21	185.000
570.57	188.333
570.93	188.000
571.28	186.333
571.64	185.667
572.00	187.333
572.36	191.333
572.71	191.333
573.07	193.333
573.43	192.333
573.78	192.333
574.14	191.667
574.50	192.000
574.86	192.000
575.21	193.000
575.57	194.667
575.93	196.667
576.28	197.000
576.64	195.667
577.00	194.000
577.35	190.667
577.71	194.000
578.07	196.333
578.42	198.333
578.78	198.667
579.14	198.667
579.49	200.667
579.85	197.000
580.21	197.000
580.56	197.667
580.92	203.000
581.28	209.333
581.63	227.333
581.99	313.667
582.35	619.333
582.70	1396.667
583.06	2438.000
583.41	3422.333
583.77	3924.333
584.13	4092.000
584.48	4095.000
584.84	4095.000
585.19	4095.000
585.55	4095.000
585.91	4095.000
586.26	4095.000
586.62	4095.000
586.97	4095.000
587.33	4095.000
587.68	4095.000
588.04	4095.000
588.39	4095.000
588.75	4095.000
589.11	4095.000
589.46	4095.000
589.82	4095.000
590.17	4095.000
590.53	4095.000
590.88	4095.000
591.24	3863.000
591.59	2873.667
591.95	1710.333
592.30	699.333
592.66	413.667
593.01	287.333
593.37	236.000
593.72	214.333
594.08	203.333
594.43	199.333
594.79	197.000
595.14	199.000
595.49	197.333
595.85	198.333
596.20	196.333
596.56	194.333
596.91	191.667
597.27	190.333
597.62	189.333
597.98	188.000
598.33	187.333
598.68	189.000
599.04	190.000
599.39	191.667
599.75	190.333
600.10	190.000
600.45	189.333
600.81	187.333
601.16	185.667
601.52	185.000
601.87	186.333
602.22	187.000
602.58	187.000
602.93	187.000
603.28	185.333
603.64	183.333
603.99	184.667
604.35	185.667
604.70	187.000
605.05	186.333
605.41	186.333
605.76	185.667
606.11	183.333
606.47	183.333
606.82	184.667
607.17	186.667
607.52	184.667
607.88	185.000
608.23	184.000
608.58	184.333
608.94	183.333
609.29	184.333
609.64	186.667
610.00	186.667
610.35	187.333
610.70	186.333
611.05	186.000
611.41	185.000
611.76	184.667
612.11	185.667
612.46	187.667
612.82	188.000
613.17	186.000
613.52	185.333
613.87	186.000
614.23	187.000
614.58	187.667
614.93	187.000
615.28	187.667
615.63	188.667
615.99	189.000
616.34	189.000
616.69	186.000
617.04	185.667
617.39	185.667
617.75	186.333
618.10	186.667
618.45	189.000
618.80	189.000
619.15	188.333
619.50	185.333
619.86	185.000
620.21	183.333
620.56	182.333
620.91	181.333
621.26	184.333
621.61	183.667
621.96	184.333
622.32	184.000
622.67	185.333
623.02	185.000
623.37	182.333
623.72	183.333
624.07	184.667
624.42	185.333
624.77	186.000
625.12	185.000
625.47	186.667
625.83	186.667
626.18	186.333
626.53	186.000
626.88	184.667
627.23	185.000
627.58	184.333
627.93	183.667
628.28	182.333
628.63	182.000
628.98	182.000
629.33	181.000
629.68	181.667
630.03	183.000
630.38	185.000
630.73	185.000
631.08	184.667
631.43	184.000
631.78	184.000
632.13	183.000
632.48	181.667
632.83	181.000
633.18	181.000
633.53	183.667
633.88	182.000
634.23	180.667
634.58	179.000
634.93	180.333
635.28	184.333
635.63	186.667
635.98	189.333
636.33	186.667
636.68	186.333
637.03	186.000
637.38	186.000
637.73	183.667
638.08	182.667
638.42	184.000
638.77	187.000
639.12	188.000
639.47	186.333
639.82	184.667
640.17	184.333
640.52	185.333
640.87	183.333
641.22	181.000
641.57	181.667
641.91	183.000
642.26	185.667
642.61	186.000
642.96	185.667
643.31	185.000
643.66	182.667
644.01	183.000
644.35	182.333
644.70	184.000
645.05	185.333
645.40	186.667
645.75	185.667
646.10	186.333
646.44	189.333
646.79	190.000
647.14	188.000
647.49	183.333
647.84	181.667
648.18	181.667
648.53	181.000
648.88	181.000
649.23	180.667
649.57	182.333
649.92	182.333
650.27	184.000
650.62	185.000
650.97	192.000
651.31	209.667
651.66	235.000
652.01	262.000
652.36	281.333
652.70	295.667
653.05	309.333
653.40	320.667
653.74	332.667
654.09	341.333
654.44	345.667
654.79	348.000
655.13	349.333
655.48	350.667
655.83	353.000
656.17	356.333
656.52	359.667
656.87	361.000
657.21	361.000
657.56	360.667
657.91	355.333
658.25	352.333
658.60	348.667
658.95	343.667
659.29	334.667
659.64	317.000
659.99	290.333
660.33	252.333
660.68	222.000
661.03	203.333
661.37	195.667
661.72	191.667
662.06	201.333
662.41	260.000
662.76	437.000
663.10	731.000
663.45	1064.333
663.79	1339.333
664.14	1537.667
664.49	1696.667
664.83	1837.333
665.18	1961.667
665.52	2064.000
665.87	2129.333
666.21	2173.000
666.56	2198.000
666.90	2236.333
667.25	2272.000
667.60	2315.000
667.94	2336.000
668.29	2330.000
668.63	2319.333
668.98	2301.000
669.32	2277.667
669.67	2232.000
670.01	2170.333
670.36	2091.333
670.70	1988.000
671.05	1826.333
671.39	1555.333
671.74	1154.333
672.08	756.000
672.43	466.667
672.77	322.333
673.12	254.333
673.46	219.000
673.80	202.667
674.15	193.667
674.49	188.333
674.84	186.333
675.18	183.333
675.53	185.000
675.87	184.667
676.21	185.333
676.56	183.667
676.90	184.667
677.25	185.667
677.59	184.000
677.94	183.333
678.28	181.667
678.62	182.667
678.97	183.000
679.31	182.000
679.65	182.667
680.00	181.667
680.34	183.667
680.69	181.333
681.03	180.333
681.37	179.000
681.72	180.333
682.06	181.333
682.40	180.000
682.75	180.333
683.09	180.333
683.43	181.667
683.78	181.000
684.12	179.333
684.46	179.333
684.81	179.333
685.15	180.667
685.49	180.000
685.83	180.667
686.18	180.667
686.52	180.667
686.86	182.000
687.21	181.333
687.55	181.667
687.89	180.000
688.23	181.333
688.58	181.333
688.92	179.667
689.26	180.000
689.60	181.000
689.95	181.333
690.29	179.333
690.63	178.667
690.97	180.000
691.32	179.667
691.66	180.000
692.00	178.667
692.34	180.000
692.68	179.000
693.03	181.667
693.37	181.000
693.71	182.333
694.05	180.333
694.39	179.667
694.73	179.000
695.08	179.333
695.42	180.667
695.76	181.000
696.10	180.333
696.44	180.667
696.78	182.000
697.13	184.667
697.47	185.000
697.81	184.000
698.15	181.667
698.49	181.333
698.83	182.333
699.17	185.333
699.51	187.000
699.85	187.000
700.20	185.000
700.54	187.000
700.88	202.000
701.22	267.333
701.56	427.333
701.90	666.000
702.24	927.667
702.58	1124.333
702.92	1278.000
703.26	1389.333
703.60	1491.667
703.94	1574.333
704.28	1656.667
704.62	1733.000
704.96	1786.333
705.30	1824.333
705.65	1848.000
705.99	1875.333
706.33	1908.000
706.67	1943.000
707.01	1953.333
707.35	1947.000
707.69	1938.667
708.03	1921.333
708.37	1890.667
708.71	1835.333
709.04	1781.000
709.38	1700.000
709.72	1581.667
710.06	1376.000
710.40	1071.333
710.74	742.000
711.08	483.667
711.42	339.000
711.76	264.333
712.10	223.667
712.44	202.667
712.78	192.333
713.12	186.000
713.46	182.333
713.80	179.333
714.14	178.667
714.47	179.000
714.81	181.667
715.15	183.000
715.49	183.667
715.83	180.667
716.17	180.000
716.51	178.667
716.85	181.000
717.18	181.333
717.52	182.333
717.86	181.333
718.20	180.000
718.54	180.000
718.88	180.667
719.22	182.333
719.55	182.000
719.89	182.667
720.23	180.000
720.57	180.667
720.91	178.333
721.24	178.667
721.58	177.000
721.92	178.000
722.26	178.333
722.60	181.000
722.93	193.333
723.27	214.333
723.61	242.667
723.95	263.333
724.28	282.000
724.62	308.667
724.96	323.000
725.30	335.667
725.63	332.667
725.97	342.000
726.31	349.000
726.65	356.000
726.98	359.667
727.32	361.667
727.66	364.000
728.00	368.667
728.33	373.000
728.67	375.000
729.01	375.000
729.34	373.333
729.68	370.333
730.02	365.000
730.35	360.000
730.69	352.667
731.03	345.333
731.36	332.000
731.70	309.333
732.04	276.667
732.37	242.000
732.71	213.000
733.05	196.000
733.38	187.333
733.72	184.667
734.06	183.000
734.39	181.667
734.73	182.000
735.06	180.333
735.40	178.667
735.74	178.667
736.07	179.000
736.41	180.000
736.74	176.667
737.08	177.667
737.41	177.667
737.75	179.667
738.09	179.667
738.42	180.333
738.76	180.667
739.09	179.333
739.43	176.667
739.76	176.667
740.10	176.667
740.43	179.667
740.77	179.667
741.11	180.667
741.44	179.000
741.78	179.000
742.11	177.667
742.45	179.000
742.78	180.333
743.12	180.667
743.45	182.000
743.79	179.333
744.12	180.000
744.45	178.667
744.79	180.333
745.12	180.333
745.46	180.333
745.79	180.333
746.13	181.333
746.46	180.667
746.80	180.667
747.13	180.000
747.47	181.667
747.80	181.000
748.13	181.667
748.47	179.000
748.80	179.667
749.14	179.000
749.47	182.333
749.80	182.333
750.14	184.333
750.47	182.333
750.81	183.667
751.14	182.333
751.47	181.333
751.81	179.333
752.14	178.000
752.47	177.000
752.81	177.000
753.14	178.000
753.47	180.000
753.81	181.333
754.14	179.333
754.47	177.333
754.81	173.667
755.14	174.667
755.47	175.000
755.81	178.000
756.14	176.000
756.47	177.000
756.81	175.333
757.14	176.000
757.47	178.333
757.80	178.333
758.14	179.333
758.47	178.000
758.80	178.667
759.14	178.000
759.47	178.333
759.80	179.667
760.13	180.667
760.47	178.667
760.80	177.000
761.13	176.667
761.46	177.000
761.79	176.667
762.13	177.000
762.46	178.000
762.79	178.000
763.12	177.000
763.46	175.667
763.79	176.333
764.12	177.000
764.45	179.333
764.78	181.333
765.11	179.000
765.45	177.000
765.78	176.000
766.11	180.667
766.44	181.000
766.77	180.333
767.10	177.333
767.44	178.667
767.77	178.000
768.10	179.000
768.43	178.000
768.76	178.000
769.09	176.333
769.42	176.333
769.75	177.000
770.08	178.000
770.42	175.667
770.75	174.333
771.08	173.000
771.41	176.000
771.74	178.000
772.07	182.667
772.40	190.333
772.73	204.667
773.06	219.667
773.39	231.333
773.72	238.667
774.05	247.000
774.38	252.333
774.71	259.333
775.04	264.667
775.37	274.333
775.70	281.333
776.03	282.333
776.36	281.000
776.69	279.667
777.02	282.667
777.35	286.333
777.68	291.333
778.01	294.000
778.34	296.667
778.67	293.333
779.00	297.000
779.33	292.667
779.66	291.333
779.99	286.333
780.32	282.667
780.65	272.667
780.98	258.333
781.31	241.667
781.64	223.333
781.97	208.333
782.30	196.667
782.63	190.667
782.95	183.333
783.28	180.333
783.61	177.667
783.94	177.667
784.27	179.000
784.60	178.667
784.93	179.000
785.26	176.667
785.59	178.667
785.91	177.667
786.24	176.333
786.57	176.667
786.90	177.000
787.23	177.000
787.56	177.000
787.89	177.667
788.21	178.000
788.54	177.000
788.87	177.667
789.20	179.667
789.53	179.000
789.85	177.000
790.18	177.000
790.51	177.000
790.84	177.667
791.17	176.667
791.49	179.333
791.82	179.667
792.15	181.000
792.48	178.667
792.80	178.000
793.13	177.000
793.46	176.000
793.79	175.333
794.11	176.000
794.44	176.333
794.77	178.667
795.10	178.000
795.42	178.667
795.75	178.000
796.08	178.000
796.40	179.667
796.73	178.000
797.06	177.000
797.39	176.000
797.71	179.000
798.04	179.000
798.37	177.667
798.69	176.333
799.02	176.667
799.35	179.000
799.67	177.667
800.00	177.667
800.32	177.000
800.65	177.667
800.98	178.667
801.30	179.000
801.63	177.667
801.96	178.333
802.28	176.333
802.61	176.667
802.93	175.667
803.26	178.333
803.59	181.333
803.91	180.667
804.24	179.667
804.56	176.333
804.89	176.333
805.22	176.000
805.54	178.000
805.87	178.667
806.19	178.333
806.52	175.667
806.84	176.333
807.17	176.000
807.49	177.333
807.82	175.000
808.14	174.667
808.47	174.333
808.79	177.000
809.12	178.333
809.44	179.333
809.77	178.333
810.09	176.667
810.42	175.333
810.74	174.667
811.07	176.333
811.39	177.667
811.72	176.667
812.04	175.667
812.37	175.333
812.69	177.333
813.02	178.000
813.34	177.000
813.67	176.667
813.99	176.000
814.31	175.333
814.64	176.333
814.96	177.333
815.29	179.333
815.61	178.667
815.93	178.667
816.26	178.000
816.58	179.000
816.91	178.667
817.23	179.333
817.55	178.000
817.88	177.667
818.20	176.667
818.52	177.000
818.85	178.333
819.17	178.667
819.50	177.667
819.82	176.000
820.14	176.000
820.47	177.000
820.79	178.667
821.11	179.333
821.44	178.000
821.76	177.667
822.08	179.333
822.40	182.000
822.73	182.333
823.05	184.333
823.37	182.667
823.70	182.000
824.02	177.667
824.34	178.333
824.66	176.667
824.99	176.000
825.31	175.333
825.63	175.333
825.95	176.000
826.28	176.667
826.60	178.667
826.92	180.000
827.24	179.000
827.57	177.667
827.89	175.667
828.21	176.000
828.53	177.000
828.85	177.333
829.18	177.333
829.50	176.667
829.82	177.667
830.14	177.000
830.46	182.667
830.78	184.333
831.11	185.000
831.43	178.333
831.75	176.667
832.07	176.667
832.39	179.000
832.71	178.667
833.03	179.667
833.36	178.333
833.68	177.000
834.00	175.333
834.32	176.333
834.64	177.667
834.96	179.000
835.28	178.667
835.60	181.000
835.92	179.000
836.25	179.000
836.57	177.667
836.89	178.333
837.21	177.000
837.53	176.667
837.85	176.667
838.17	176.333
838.49	176.667
838.81	176.667
839.13	177.333
839.45	178.000
839.77	179.667
840.09	181.333
840.41	185.000
840.73	189.333
841.05	192.333
841.37	199.333
841.69	198.667
842.01	200.667
842.33	194.000
842.65	194.667
842.97	196.333
843.29	200.667
843.61	201.333
843.93	201.667
844.25	199.333
844.57	202.000
844.89	202.333
845.21	201.667
845.53	200.667
845.85	201.333
846.16	200.667
846.48	201.333
846.80	201.333
847.12	204.333
847.44	203.667
847.76	203.333
848.08	201.667
848.40	200.000
848.72	193.333
849.04	187.333
849.35	183.667
849.67	182.667
849.99	182.667
850.31	180.667
850.63	179.000
850.95	177.667
851.27	178.333
851.58	179.000
851.90	178.000
852.22	176.333
852.54	174.667
852.86	175.000
853.17	174.667
853.49	174.333
853.81	175.000
854.13	176.667
854.45	181.000
854.76	179.667
855.08	178.333
855.40	176.333
855.72	178.000
856.03	180.667
856.35	181.333
856.67	180.333
856.99	179.333
857.30	178.333
857.62	178.667
857.94	177.667
858.26	177.000
858.57	176.667
858.89	175.667
859.21	176.000
859.53	178.000
859.84	179.000
860.16	180.000
860.48	178.000
860.79	178.333
861.11	177.333
861.43	178.667
861.74	178.333
862.06	178.667
862.38	177.333
862.69	178.000
863.01	177.000
863.33	176.000
863.64	174.333
863.96	174.000
864.27	178.333
864.59	178.667
864.91	180.333
865.22	178.333
865.54	179.333
865.85	176.667
866.17	176.333
866.49	175.333
866.80	177.667
867.12	176.667
867.43	177.333
867.75	178.000
868.07	179.333
868.38	180.667
868.70	179.667
869.01	180.667
869.33	178.667
869.64	179.000
869.96	178.667
870.27	180.000
870.59	180.333
870.90	178.333
871.22	178.333
871.53	178.000
871.85	179.000
872.16	176.667
872.48	200.667
872.79	199.667
873.11	201.000
873.42	176.667
873.74	177.333
874.05	179.000
874.37	179.667
874.68	181.667
875.00	179.000
875.31	179.000
875.62	178.000
875.94	177.667
876.25	177.000
876.57	175.667
876.88	176.000
877.20	178.333
877.51	178.333
877.82	179.667
878.14	179.000
878.45	178.333
878.77	178.333
879.08	176.333
879.39	178.333
879.71	179.000
880.02	180.667
880.33	179.000
880.65	177.667
880.96	176.333
881.27	175.000
881.59	175.333
881.90	177.000
882.21	177.667
882.53	179.000
882.84	176.000
883.15	177.000
883.47	176.333
883.78	176.667
884.09	173.667
884.41	171.667
884.72	172.000
885.03	174.667
885.34	176.333
885.66	176.667
885.97	175.000
886.28	174.000
886.59	175.667
886.91	178.667
887.22	179.333
887.53	179.333
887.84	177.667
888.16	178.667
888.47	178.333
888.78	180.667
889.09	177.333
889.40	176.333
889.72	174.333
890.03	176.667
890.34	176.333
890.65	177.667
890.96	178.000
891.28	181.000
891.59	181.333
891.90	182.000
892.21	180.333
892.52	180.667
892.83	183.000
893.14	183.667
893.46	182.000
893.77	180.000
894.08	178.000
894.39	178.333
894.70	179.667
895.01	181.000
895.32	182.333
895.63	182.333
895.95	185.000
896.26	185.333
896.57	184.333
896.88	183.000
897.19	182.333
897.50	182.667
897.81	180.333
898.12	179.333
898.43	177.333
898.74	178.000
899.05	178.667
899.36	178.667
899.67	178.667
899.98	177.667
900.29	175.667
900.60	175.000
900.91	175.000
901.22	176.333
901.53	174.667
901.84	174.667
902.15	176.000
902.46	178.333
902.77	178.333
903.08	177.667
903.39	177.000
903.70	177.667
904.01	179.667
904.32	180.333
904.63	178.333
904.94	176.000
905.25	175.333
905.56	176.667
905.87	178.667
906.18	180.333
906.48	181.333
906.79	181.667
907.10	179.667
907.41	178.333
907.72	178.000
908.03	177.667
908.34	178.667
908.65	178.667
908.96	182.000
909.26	180.333
909.57	180.000
909.88	178.000
910.19	186.667
910.50	186.000
910.81	184.667
911.11	177.333
911.42	177.000
911.73	176.333
912.04	177.667
912.35	177.667
912.66	180.000
912.96	178.667
913.27	178.333
913.58	179.667
913.89	180.333
914.19	181.667
914.50	181.000
914.81	178.333
915.12	178.000
915.43	177.333
915.73	181.333
916.04	180.333
916.35	180.000
916.65	178.000
916.96	178.333
917.27	177.667
917.58	177.333
917.88	176.333
918.19	176.333
918.50	178.000
918.80	178.333
919.11	179.667
919.42	179.667
919.73	180.333
920.03	180.333
920.34	177.333
920.65	177.333
920.95	177.000
921.26	176.333
921.56	176.333
921.87	175.667
922.18	178.667
922.48	178.333
922.79	178.000
923.10	180.333
923.40	181.333
923.71	183.333
924.01	182.333
924.32	183.333
924.63	182.667
924.93	182.667
925.24	181.000
925.54	182.333
925.85	180.333
926.16	180.000
926.46	178.333
926.77	179.000
927.07	181.000
927.38	181.333
927.68	181.000
927.99	179.333
928.29	180.667
928.60	180.000
928.90	181.333
929.21	181.667
929.51	180.667
929.82	180.667
930.12	177.000
930.43	178.667
930.73	178.000
931.04	181.000
931.34	180.333
931.65	179.333
931.95	176.333
932.26	177.667
932.56	178.333
932.87	179.333
933.17	178.000
933.47	178.333
933.78	178.333
934.08	181.000
934.39	180.667
934.69	179.000
935.00	176.667
935.30	175.667
935.60	176.667
935.91	176.000
936.21	176.667
936.51	176.667
936.82	179.000
937.12	178.333
937.43	176.667
937.73	173.667
938.03	173.667
938.34	175.333
938.64	178.000
938.94	179.667
939.25	178.000
939.55	174.333
939.85	173.667
940.16	176.000
940.46	177.333
940.76	178.333
941.06	179.333
941.37	179.667
941.67	178.333
941.97	178.667
942.28	179.000
942.58	178.000
942.88	176.000
943.18	175.000
943.49	175.333
943.79	176.000
944.09	177.333
944.39	178.667
944.70	178.333
945.00	176.000
945.30	176.333
945.60	177.000
945.91	180.000
946.21	179.000
946.51	178.000
946.81	177.000
947.11	176.333
947.41	177.000
947.72	177.333
948.02	177.333
948.32	178.333
948.62	178.667
948.92	178.667
949.22	176.333
949.53	178.000
949.83	178.333
950.13	177.667
950.43	174.667
950.73	173.667
951.03	175.333
951.33	177.000
951.63	179.667
951.94	179.333
952.24	179.000
952.54	177.667
952.84	176.000
953.14	177.000
953.44	176.333
953.74	177.000
954.04	175.000
954.34	174.333
954.64	175.667
954.94	175.333
955.24	175.667
955.54	175.667
955.84	176.333
956.14	177.333
956.44	176.667
956.74	177.000
957.04	175.000
957.34	176.667
957.64	178.333
957.94	180.333
958.24	179.333
958.54	177.333
958.84	178.333
959.14	178.667
959.44	180.000
959.74	179.000
960.04	180.000
960.34	178.667
960.64	179.333
960.94	177.667
961.24	177.333
961.54	175.333
961.84	174.333
962.14	173.667
962.43	174.000
962.73	176.333
963.03	176.667
963.33	174.333
963.63	172.667
963.93	173.000
964.23	176.333
964.53	177.000
964.83	175.667
965.12	175.667
965.42	176.000
965.72	177.667
966.02	176.667
966.32	174.667
966.62	176.667
966.91	177.000
967.21	179.000
967.51	176.000
967.81	175.000
968.11	174.000
968.40	175.667
968.70	176.667
969.00	177.667
969.30	177.333
969.60	177.333
969.89	178.000
970.19	177.667
970.49	176.667
970.79	175.333
971.08	176.333
971.38	178.333
971.68	178.333
971.97	176.667
972.27	175.667
972.57	173.667
972.87	174.000
973.16	173.667
973.46	174.667
973.76	173.667
974.05	174.000
974.35	175.667
974.65	178.000
974.94	178.667
975.24	179.667
975.54	179.333
975.83	180.000
976.13	179.000
976.43	178.333
976.72	177.333
977.02	177.000
977.32	177.333
977.61	176.667
977.91	177.333
978.20	177.667
978.50	177.667
978.80	176.667
979.09	173.000
979.39	173.333
979.68	172.000
979.98	175.333
980.28	175.000
980.57	175.667
980.87	175.000
981.16	176.000
981.46	178.000
981.75	179.000
982.05	176.333
982.34	175.667
982.64	173.000
982.93	175.333
983.23	175.333
983.52	177.000
983.82	178.333
984.11	178.000
984.41	178.667
984.70	178.000
985.00	179.000
985.29	177.667
985.59	178.000
985.88	176.000
986.18	175.667
986.47	174.333
986.77	176.667
987.06	178.000
987.35	178.667
987.65	176.000
987.94	175.000
988.24	173.667
988.53	175.000
988.83	174.667
989.12	175.000
989.41	174.667
989.71	174.333
990.00	177.667
990.29	178.333
990.59	179.667
990.88	176.000
991.18	175.667
991.47	175.667
991.76	178.667
992.06	180.000
992.35	180.000
992.64	178.667
992.94	177.667
993.23	176.333
993.52	175.333
993.82	175.000
994.11	177.333
994.40	179.333
994.69	179.333
994.99	179.000
995.28	179.667
995.57	178.667
995.87	176.667
996.16	173.000
996.45	173.667
996.74	174.000
997.04	174.667
997.33	176.000
997.62	176.667
997.91	178.333
998.20	175.333
998.50	175.667
998.79	175.333
999.08	178.000
999.37	178.000
999.67	178.000
999.96	177.000
1000.25	178.333
1000.54	178.333
1000.83	178.667
1001.12	178.333
1001.42	179.000
1001.71	178.667
1002.00	180.333
1002.29	181.333
1002.58	182.667
1002.87	182.000
1003.16	183.000
1003.46	182.667
1003.75	181.667
1004.04	178.667
1004.33	178.667
1004.62	178.333
1004.91	177.000
1005.20	175.333
1005.49	175.000
1005.78	176.333
1006.07	179.333
1006.36	181.000
1006.65	188.333
1006.95	188.000
1007.24	188.000
1007.53	182.000
1007.82	181.000
1008.11	180.000
1008.40	178.000
1008.69	178.667
1008.98	178.667
1009.27	178.333
1009.56	177.667
1009.85	177.333
1010.14	177.000
1010.43	178.000
1010.72	177.333
1011.01	180.000
1011.30	177.667
1011.59	178.000
1011.88	176.333
1012.16	177.667
1012.45	178.000
1012.74	176.333
1013.03	175.333
1013.32	176.000
1013.61	177.333
1013.90	175.667
1014.19	174.333
1014.48	175.667
1014.77	177.333
1015.06	176.333
1015.35	174.333
1015.63	175.000
1015.92	177.000
1016.21	178.333
1016.50	178.667
1016.79	176.667
1017.08	174.333
1017.37	175.333
1017.65	177.000
1017.94	178.333
1018.23	175.667
1018.52	176.000
1018.81	178.000
1019.09	178.000
1019.38	178.000
1019.67	179.000
1019.96	180.333
1020.25	179.667
1020.53	177.667
1020.82	175.667
1021.11	176.000
1021.40	177.000
1021.69	179.667
1021.97	179.667
1022.26	178.333
1022.55	177.000
1022.83	176.000
1023.12	177.667
1023.41	178.000
1023.70	179.000
1023.98	178.333
1024.27	179.000
1024.56	179.667
1024.84	179.333
1025.13	180.333
1025.42	180.667
1025.71	180.000
1025.99	179.333
1026.28	177.333
1026.57	178.000
1026.85	177.333
1027.14	177.667
1027.42	178.667
1027.71	178.333
1028.00	178.667
1028.28	176.667
1028.57	178.000
1028.86	178.667
1029.14	177.333
1029.43	175.667
1029.71	174.667
1030.00	177.667
1030.29	177.667
1030.57	180.667
1030.86	181.667
1031.14	182.000
1031.43	180.000
1031.71	178.000
1032.00	178.667
1032.28	178.667
1032.57	177.333
1032.86	175.000
1033.14	173.000
1033.43	178.000
1033.71	180.333
1034.00	181.333
1034.28	177.333
1034.57	175.333
1034.85	174.333
1035.14	174.667
1035.42	177.333
1035.71	179.000
1035.99	180.667
1036.27	179.000
1036.56	181.000
1036.84	178.333
1037.13	178.333
1037.41	176.000
1037.70	177.667
1037.98	177.000
1038.27	176.667
1038.55	176.667
1038.83	177.667
1039.12	177.333
1039.40	175.667
1039.69	175.333
1039.97	175.000
1040.25	177.333
1040.54	178.333
1040.82	180.667
1041.10	179.000
1041.39	178.333
1041.67	178.000
1041.95	179.000
1042.24	177.667
1042.52	176.333
1042.80	176.000
1043.09	177.667
1043.37	177.000
1043.65	176.000
1043.94	176.333
1044.22	177.333
1044.50	176.667
1044.79	173.667
1045.07	173.333
1045.35	173.333
1045.63	176.000
1045.92	175.000
1046.20	176.333
1046.48	176.667
1046.76	179.333
1047.05	178.667
1047.33	177.667
1047.61	176.333
1047.89	176.667
1048.18	179.333
1048.46	180.333
1048.74	180.333
1049.02	177.333
1049.30	176.667
1049.59	177.333
1049.87	179.667
1050.15	177.333
1050.43	177.333
1050.71	175.667
1050.99	177.667
1051.28	178.333
1051.56	179.000
1051.84	179.000
>>>>>End Spectral Data<<<<<
