OOIBase32 Version 2.0.1.2 Data File
++++++++++++++++++++++++++++++++++++
Date: 01-30-2024, 12:10:34
User: Valued Ocean Optics Customer
Spectrometer Serial Number: I2J345
Spectrometer Channel: Master
Integration Time (msec): 100
Spectra Averaged: 1
Boxcar Smoothing: 1
Correct for Electrical Dark: Disabled
Time Normalized: Disabled
Dual-beam Reference: Disabled
Reference Channel: Master
Temperature: Not acquired
Spectrometer Type: S2000
ADC Type: USB2000
Number of Pixels in File: 2048
Graph Title: 
>>>>>Begin Spectral Data<<<<<
367.70	0.000
368.08	0.000
368.46	0.903
368.84	0.000
369.22	0.000
369.60	0.000
369.98	0.000
370.36	0.000
370.74	0.000
371.12	0.000
371.50	0.000
371.88	0.000
372.25	0.000
372.63	0.000
373.01	0.000
373.39	0.000
373.77	0.000
374.15	0.000
374.53	0.000
374.91	0.000
375.29	0.000
375.67	0.000
376.04	0.000
376.42	0.000
376.80	0.000
377.18	0.000
377.56	0.000
377.94	0.903
378.32	0.903
378.69	0.544
379.07	0.531
379.45	0.342
379.83	0.000
380.21	0.000
380.59	0.000
380.96	0.637
381.34	0.477
381.72	0.146
382.10	0.336
382.48	0.222
382.86	0.602
383.23	0.000
383.61	0.000
383.99	0.000
384.37	0.000
384.75	0.000
385.12	0.000
385.50	0.000
385.88	0.000
386.26	-0.125
386.63	-0.222
387.01	-0.204
387.39	0.000
387.77	0.000
388.14	0.000
388.52	0.000
388.90	0.000
389.28	0.000
389.65	0.000
390.03	0.602
390.41	0.000
390.79	-0.778
391.16	0.000
391.54	0.000
391.92	0.000
392.30	0.204
392.67	0.192
393.05	0.352
393.43	0.230
393.80	0.051
394.18	0.380
394.56	0.000
394.93	1.176
395.31	0.336
395.69	0.385
396.06	0.512
396.44	1.146
396.82	0.620
397.19	0.628
397.57	0.000
397.95	0.000
398.32	0.000
398.70	0.000
399.08	0.720
399.45	0.406
399.83	0.170
400.21	0.129
400.58	0.338
400.96	0.551
401.34	0.556
401.71	0.240
402.09	0.222
402.46	0.026
402.84	0.000
403.22	-0.026
403.59	0.133
403.97	0.517
404.34	0.258
404.72	0.247
405.10	0.196
405.47	0.237
405.85	0.187
406.22	0.336
406.60	0.938
406.97	0.000
407.35	0.000
407.73	1.146
408.10	1.462
408.48	1.243
408.85	0.711
409.23	0.602
409.60	0.380
409.98	0.334
410.35	0.360
410.73	0.462
411.10	0.443
411.48	0.531
411.85	0.503
412.23	0.757
412.60	0.561
412.98	0.459
413.35	0.394
413.73	0.477
414.10	0.824
414.48	0.000
414.85	0.000
415.23	0.000
415.60	0.000
415.98	0.000
416.35	0.947
416.73	0.831
417.10	0.714
417.48	0.871
417.85	0.970
418.23	0.875
418.60	0.725
418.98	0.656
419.35	0.693
419.72	0.564
420.10	0.650
420.47	0.828
420.85	1.176
421.22	0.869
421.60	0.828
421.97	0.729
422.34	0.845
422.72	0.671
423.09	0.932
423.47	1.079
423.84	1.415
424.21	1.097
424.59	0.835
424.96	0.903
425.34	0.669
425.71	0.793
426.08	0.840
426.46	0.000
426.83	1.672
427.20	1.695
427.58	0.862
427.95	0.747
428.32	0.639
428.70	0.786
429.07	0.703
429.44	0.748
429.82	0.721
430.19	0.782
430.56	0.775
430.94	0.862
431.31	0.839
431.68	0.813
432.06	0.573
432.43	0.605
432.80	0.569
433.18	0.797
433.55	0.669
433.92	0.737
434.29	0.729
434.67	0.838
435.04	0.872
435.41	0.760
435.79	0.786
436.16	0.768
436.53	0.761
436.90	0.788
437.28	0.729
437.65	0.833
438.02	0.706
438.39	0.706
438.77	0.682
439.14	0.689
439.51	0.649
439.88	0.644
440.25	0.790
440.63	0.907
441.00	0.825
441.37	0.782
441.74	0.697
442.12	0.705
442.49	0.646
442.86	0.693
443.23	0.690
443.60	0.723
443.98	0.673
444.35	0.675
444.72	0.650
445.09	0.708
445.46	0.751
445.83	0.791
446.21	0.749
446.58	0.749
446.95	0.702
447.32	0.728
447.69	0.710
448.06	0.688
448.43	0.691
448.81	0.645
449.18	0.635
449.55	0.612
449.92	0.612
450.29	0.636
450.66	0.692
451.03	0.696
451.40	0.703
451.77	0.669
452.15	0.647
452.52	0.633
452.89	0.602
453.26	0.627
453.63	0.622
454.00	0.639
454.37	0.610
454.74	0.630
455.11	0.621
455.48	0.661
455.85	0.589
456.22	0.608
456.59	0.564
456.97	0.617
457.34	0.561
457.71	0.580
458.08	0.585
458.45	0.625
458.82	0.598
459.19	0.590
459.56	0.575
459.93	0.591
460.30	0.576
460.67	0.576
461.04	0.578
461.41	0.576
461.78	0.589
462.15	0.584
462.52	0.579
462.89	0.533
463.26	0.513
463.63	0.517
464.00	0.533
464.37	0.555
464.74	0.541
465.11	0.528
465.47	0.495
465.84	0.499
466.21	0.505
466.58	0.500
466.95	0.503
467.32	0.489
467.69	0.518
468.06	0.493
468.43	0.496
468.80	0.491
469.17	0.502
469.54	0.514
469.91	0.499
470.28	0.491
470.64	0.464
471.01	0.462
471.38	0.458
471.75	0.460
472.12	0.451
472.49	0.443
472.86	0.438
473.23	0.433
473.60	0.431
473.96	0.436
474.33	0.441
474.70	0.435
475.07	0.435
475.44	0.428
475.81	0.432
476.17	0.417
476.54	0.409
476.91	0.408
477.28	0.410
477.65	0.417
478.02	0.411
478.38	0.412
478.75	0.404
479.12	0.402
479.49	0.394
479.86	0.390
480.22	0.397
480.59	0.404
480.96	0.412
481.33	0.400
481.70	0.394
482.06	0.389
482.43	0.382
482.80	0.384
483.17	0.383
483.53	0.385
483.90	0.376
484.27	0.362
484.64	0.359
485.00	0.357
485.37	0.354
485.74	0.351
486.11	0.352
486.47	0.363
486.84	0.359
487.21	0.352
487.58	0.338
487.94	0.341
488.31	0.340
488.68	0.339
489.04	0.339
489.41	0.347
489.78	0.349
490.14	0.350
490.51	0.349
490.88	0.356
491.24	0.352
491.61	0.342
491.98	0.338
492.34	0.335
492.71	0.332
493.08	0.328
493.44	0.325
493.81	0.329
494.18	0.323
494.54	0.322
494.91	0.319
495.28	0.321
495.64	0.318
496.01	0.313
496.37	0.309
496.74	0.314
497.11	0.315
497.47	0.318
497.84	0.308
498.21	0.304
498.57	0.299
498.94	0.300
499.30	0.300
499.67	0.297
500.03	0.299
500.40	0.295
500.77	0.295
501.13	0.292
501.50	0.295
501.86	0.290
502.23	0.288
502.59	0.279
502.96	0.284
503.32	0.282
503.69	0.290
504.06	0.284
504.42	0.274
504.79	0.264
505.15	0.264
505.52	0.273
505.88	0.276
506.25	0.273
506.61	0.268
506.98	0.268
507.34	0.273
507.71	0.272
508.07	0.267
508.44	0.257
508.80	0.256
509.17	0.261
509.53	0.265
509.89	0.269
510.26	0.266
510.62	0.266
510.99	0.259
511.35	0.255
511.72	0.259
512.08	0.266
512.45	0.271
512.81	0.260
513.18	0.254
513.54	0.249
513.90	0.252
514.27	0.255
514.63	0.255
515.00	0.252
515.36	0.242
515.72	0.237
516.09	0.239
516.45	0.239
516.82	0.243
517.18	0.240
517.54	0.244
517.91	0.237
518.27	0.236
518.63	0.231
519.00	0.233
519.36	0.238
519.73	0.241
520.09	0.237
520.45	0.231
520.82	0.227
521.18	0.231
521.54	0.233
521.91	0.235
522.27	0.227
522.63	0.227
523.00	0.225
523.36	0.227
523.72	0.220
524.08	0.220
524.45	0.217
524.81	0.216
525.17	0.213
525.54	0.209
525.90	0.209
526.26	0.211
526.63	0.216
526.99	0.214
527.35	0.212
527.71	0.206
528.08	0.203
528.44	0.203
528.80	0.206
529.16	0.205
529.53	0.202
529.89	0.200
530.25	0.200
530.61	0.201
530.98	0.195
531.34	0.197
531.70	0.198
532.06	0.203
532.42	0.200
532.79	0.195
533.15	0.193
533.51	0.196
533.87	0.202
534.23	0.198
534.60	0.193
534.96	0.188
535.32	0.187
535.68	0.190
536.04	0.190
536.40	0.194
536.77	0.192
537.13	0.191
537.49	0.188
537.85	0.188
538.21	0.187
538.57	0.185
538.93	0.181
539.30	0.177
539.66	0.178
540.02	0.175
540.38	0.178
540.74	0.178
541.10	0.187
541.46	0.184
541.82	0.180
542.18	0.173
542.55	0.173
542.91	0.174
543.27	0.175
543.63	0.171
543.99	0.173
544.35	0.171
544.71	0.175
545.07	0.172
545.43	0.170
545.79	0.171
546.15	0.170
546.51	0.172
546.87	0.164
547.23	0.162
547.59	0.161
547.95	0.162
548.32	0.165
548.68	0.161
549.04	0.159
549.40	0.154
549.76	0.156
550.12	0.156
550.48	0.159
550.84	0.160
551.20	0.160
551.56	0.159
551.92	0.157
552.28	0.157
552.63	0.157
552.99	0.156
553.35	0.155
553.71	0.152
554.07	0.152
554.43	0.149
554.79	0.149
555.15	0.152
555.51	0.154
555.87	0.154
556.23	0.153
556.59	0.154
556.95	0.155
557.31	0.151
557.67	0.148
558.03	0.145
558.39	0.149
558.74	0.151
559.10	0.152
559.46	0.149
559.82	0.141
560.18	0.141
560.54	0.143
560.90	0.145
561.26	0.144
561.61	0.140
561.97	0.140
562.33	0.139
562.69	0.138
563.05	0.137
563.41	0.140
563.77	0.140
564.12	0.141
564.48	0.138
564.84	0.136
565.20	0.138
565.56	0.136
565.92	0.135
566.27	0.134
566.63	0.136
566.99	0.139
567.35	0.137
567.71	0.136
568.06	0.135
568.42	0.136
568.78	0.134
569.14	0.134
569.50	0.135
569.85	0.138
570.21	0.138
570.57	0.136
570.93	0.133
571.28	0.130
571.64	0.129
572.00	0.127
572.36	0.124
572.71	0.123
573.07	0.125
573.43	0.126
573.78	0.122
574.14	0.118
574.50	0.116
574.86	0.118
575.21	0.115
575.57	0.116
575.93	0.116
576.28	0.118
576.64	0.117
577.00	0.117
577.35	0.118
577.71	0.119
578.07	0.121
578.42	0.121
578.78	0.122
579.14	0.121
579.49	0.123
579.85	0.123
580.21	0.124
580.56	0.122
580.92	0.121
581.28	0.122
581.63	0.122
581.99	0.120
582.35	0.119
582.70	0.121
583.06	0.121
583.41	0.122
583.77	0.120
584.13	0.120
584.48	0.120
584.84	0.119
585.19	0.117
585.55	0.113
585.91	0.111
586.26	0.110
586.62	0.108
586.97	0.108
587.33	0.110
587.68	0.111
588.04	0.111
588.39	0.108
588.75	0.108
589.11	0.107
589.46	0.108
589.82	0.108
590.17	0.107
590.53	0.106
590.88	0.107
591.24	0.107
591.59	0.109
591.95	0.108
592.30	0.108
592.66	0.110
593.01	0.111
593.37	0.112
593.72	0.109
594.08	0.110
594.43	0.114
594.79	0.117
595.14	0.118
595.49	0.113
595.85	0.111
596.20	0.107
596.56	0.108
596.91	0.107
597.27	0.106
597.62	0.106
597.98	0.104
598.33	0.103
598.68	0.103
599.04	0.104
599.39	0.104
599.75	0.100
600.10	0.101
600.45	0.100
600.81	0.100
601.16	0.097
601.52	0.098
601.87	0.099
602.22	0.100
602.58	0.100
602.93	0.099
603.28	0.099
603.64	0.097
603.99	0.096
604.35	0.098
604.70	0.098
605.05	0.105
605.41	0.105
605.76	0.108
606.11	0.106
606.47	0.108
606.82	0.107
607.17	0.106
607.52	0.104
607.88	0.103
608.23	0.100
608.58	0.101
608.94	0.100
609.29	0.100
609.64	0.096
610.00	0.094
610.35	0.092
610.70	0.091
611.05	0.089
611.41	0.090
611.76	0.090
612.11	0.088
612.46	0.091
612.82	0.094
613.17	0.097
613.52	0.095
613.87	0.094
614.23	0.093
614.58	0.092
614.93	0.094
615.28	0.095
615.63	0.095
615.99	0.095
616.34	0.092
616.69	0.093
617.04	0.094
617.39	0.097
617.75	0.099
618.10	0.100
618.45	0.100
618.80	0.098
619.15	0.098
619.50	0.096
619.86	0.096
620.21	0.094
620.56	0.094
620.91	0.095
621.26	0.095
621.61	0.096
621.96	0.095
622.32	0.093
622.67	0.091
623.02	0.091
623.37	0.090
623.72	0.089
624.07	0.085
624.42	0.085
624.77	0.085
625.12	0.087
625.47	0.089
625.83	0.091
626.18	0.095
626.53	0.094
626.88	0.095
627.23	0.095
627.58	0.097
627.93	0.099
628.28	0.100
628.63	0.100
628.98	0.097
629.33	0.095
629.68	0.094
630.03	0.092
630.38	0.090
630.73	0.087
631.08	0.086
631.43	0.085
631.78	0.085
632.13	0.086
632.48	0.088
632.83	0.088
633.18	0.085
633.53	0.084
633.88	0.085
634.23	0.088
634.58	0.089
634.93	0.089
635.28	0.089
635.63	0.088
635.98	0.086
636.33	0.084
636.68	0.082
637.03	0.082
637.38	0.084
637.73	0.084
638.08	0.082
638.42	0.082
638.77	0.084
639.12	0.087
639.47	0.089
639.82	0.089
640.17	0.090
640.52	0.090
640.87	0.088
641.22	0.088
641.57	0.084
641.91	0.084
642.26	0.080
642.61	0.083
642.96	0.083
643.31	0.085
643.66	0.084
644.01	0.086
644.35	0.088
644.70	0.090
645.05	0.087
645.40	0.086
645.75	0.083
646.10	0.084
646.44	0.082
646.79	0.082
647.14	0.081
647.49	0.081
647.84	0.082
648.18	0.084
648.53	0.085
648.88	0.087
649.23	0.090
649.57	0.089
649.92	0.089
650.27	0.088
650.62	0.088
650.97	0.089
651.31	0.089
651.66	0.088
652.01	0.086
652.36	0.086
652.70	0.086
653.05	0.082
653.40	0.080
653.74	0.077
654.09	0.079
654.44	0.080
654.79	0.081
655.13	0.083
655.48	0.084
655.83	0.085
656.17	0.085
656.52	0.083
656.87	0.081
657.21	0.078
657.56	0.081
657.91	0.081
658.25	0.083
658.60	0.080
658.95	0.081
659.29	0.081
659.64	0.079
659.99	0.077
660.33	0.075
660.68	0.075
661.03	0.074
661.37	0.077
661.72	0.079
662.06	0.080
662.41	0.079
662.76	0.080
663.10	0.081
663.45	0.083
663.79	0.082
664.14	0.082
664.49	0.080
664.83	0.081
665.18	0.078
665.52	0.077
665.87	0.075
666.21	0.077
666.56	0.079
666.90	0.080
667.25	0.077
667.60	0.076
667.94	0.074
668.29	0.076
668.63	0.077
668.98	0.079
669.32	0.076
669.67	0.074
670.01	0.073
670.36	0.072
670.70	0.073
671.05	0.073
671.39	0.079
671.74	0.079
672.08	0.081
672.43	0.077
672.77	0.076
673.12	0.075
673.46	0.076
673.80	0.077
674.15	0.079
674.49	0.078
674.84	0.080
675.18	0.078
675.53	0.077
675.87	0.076
676.21	0.076
676.56	0.076
676.90	0.076
677.25	0.076
677.59	0.076
677.94	0.076
678.28	0.078
678.62	0.078
678.97	0.077
679.31	0.077
679.65	0.078
680.00	0.078
680.34	0.075
680.69	0.074
681.03	0.076
681.37	0.076
681.72	0.073
682.06	0.074
682.40	0.076
682.75	0.078
683.09	0.078
683.43	0.077
683.78	0.076
684.12	0.076
684.46	0.075
684.81	0.076
685.15	0.074
685.49	0.075
685.83	0.075
686.18	0.076
686.52	0.075
686.86	0.075
687.21	0.075
687.55	0.075
687.89	0.075
688.23	0.073
688.58	0.073
688.92	0.072
689.26	0.072
689.60	0.071
689.95	0.070
690.29	0.069
690.63	0.067
690.97	0.067
691.32	0.066
691.66	0.067
692.00	0.068
692.34	0.068
692.68	0.069
693.03	0.069
693.37	0.070
693.71	0.072
694.05	0.072
694.39	0.072
694.73	0.070
695.08	0.070
695.42	0.070
695.76	0.071
696.10	0.072
696.44	0.073
696.78	0.073
697.13	0.072
697.47	0.074
697.81	0.073
698.15	0.075
698.49	0.072
698.83	0.074
699.17	0.072
699.51	0.069
699.85	0.068
700.20	0.069
700.54	0.072
700.88	0.069
701.22	0.067
701.56	0.070
701.90	0.071
702.24	0.072
702.58	0.070
702.92	0.068
703.26	0.069
703.60	0.069
703.94	0.072
704.28	0.072
704.62	0.074
704.96	0.073
705.30	0.070
705.65	0.069
705.99	0.069
706.33	0.069
706.67	0.068
707.01	0.069
707.35	0.072
707.69	0.075
708.03	0.078
708.37	0.073
708.71	0.072
709.04	0.070
709.38	0.071
709.72	0.071
710.06	0.071
710.40	0.071
710.74	0.071
711.08	0.071
711.42	0.073
711.76	0.073
712.10	0.073
712.44	0.071
712.78	0.072
713.12	0.071
713.46	0.070
713.80	0.069
714.14	0.070
714.47	0.072
714.81	0.072
715.15	0.072
715.49	0.072
715.83	0.071
716.17	0.070
716.51	0.069
716.85	0.069
717.18	0.069
717.52	0.071
717.86	0.069
718.20	0.069
718.54	0.069
718.88	0.073
719.22	0.074
719.55	0.074
719.89	0.072
720.23	0.072
720.57	0.069
720.91	0.067
721.24	0.065
721.58	0.065
721.92	0.065
722.26	0.065
722.60	0.065
722.93	0.063
723.27	0.062
723.61	0.061
723.95	0.062
724.28	0.062
724.62	0.064
724.96	0.063
725.30	0.066
725.63	0.067
725.97	0.068
726.31	0.064
726.65	0.064
726.98	0.062
727.32	0.065
727.66	0.064
728.00	0.065
728.33	0.066
728.67	0.067
729.01	0.067
729.34	0.064
729.68	0.065
730.02	0.066
730.35	0.067
730.69	0.065
731.03	0.067
731.36	0.069
731.70	0.073
732.04	0.070
732.37	0.068
732.71	0.065
733.05	0.067
733.38	0.067
733.72	0.067
734.06	0.068
734.39	0.067
734.73	0.069
735.06	0.069
735.40	0.070
735.74	0.070
736.07	0.068
736.41	0.068
736.74	0.070
737.08	0.072
737.41	0.073
737.75	0.076
738.09	0.077
738.42	0.079
738.76	0.077
739.09	0.076
739.43	0.075
739.76	0.074
740.10	0.074
740.43	0.073
740.77	0.071
741.11	0.072
741.44	0.071
741.78	0.069
742.11	0.070
742.45	0.072
742.78	0.074
743.12	0.072
743.45	0.071
743.79	0.071
744.12	0.073
744.45	0.072
744.79	0.070
745.12	0.069
745.46	0.071
745.79	0.070
746.13	0.067
746.46	0.068
746.80	0.070
747.13	0.073
747.47	0.071
747.80	0.069
748.13	0.069
748.47	0.070
748.80	0.069
749.14	0.069
749.47	0.071
749.80	0.070
750.14	0.066
750.47	0.062
750.81	0.063
751.14	0.065
751.47	0.066
751.81	0.064
752.14	0.064
752.47	0.067
752.81	0.069
753.14	0.068
753.47	0.065
753.81	0.064
754.14	0.064
754.47	0.064
754.81	0.064
755.14	0.062
755.47	0.060
755.81	0.061
756.14	0.060
756.47	0.063
756.81	0.063
757.14	0.064
757.47	0.062
757.80	0.062
758.14	0.058
758.47	0.059
758.80	0.059
759.14	0.063
759.47	0.062
759.80	0.060
760.13	0.061
760.47	0.061
760.80	0.064
761.13	0.065
761.46	0.067
761.79	0.066
762.13	0.064
762.46	0.064
762.79	0.064
763.12	0.064
763.46	0.062
763.79	0.063
764.12	0.063
764.45	0.062
764.78	0.060
765.11	0.060
765.45	0.061
765.78	0.060
766.11	0.059
766.44	0.058
766.77	0.058
767.10	0.057
767.44	0.055
767.77	0.059
768.10	0.060
768.43	0.060
768.76	0.057
769.09	0.056
769.42	0.058
769.75	0.056
770.08	0.057
770.42	0.059
770.75	0.062
771.08	0.063
771.41	0.063
771.74	0.065
772.07	0.066
772.40	0.067
772.73	0.064
773.06	0.062
773.39	0.060
773.72	0.059
774.05	0.059
774.38	0.058
774.71	0.058
775.04	0.060
775.37	0.060
775.70	0.059
776.03	0.061
776.36	0.061
776.69	0.061
777.02	0.057
777.35	0.056
777.68	0.057
778.01	0.054
778.34	0.058
778.67	0.060
779.00	0.063
779.33	0.060
779.66	0.060
779.99	0.061
780.32	0.061
780.65	0.062
780.98	0.063
781.31	0.064
781.64	0.067
781.97	0.067
782.30	0.068
782.63	0.067
782.95	0.066
783.28	0.065
783.61	0.062
783.94	0.062
784.27	0.060
784.60	0.063
784.93	0.063
785.26	0.064
785.59	0.063
785.91	0.063
786.24	0.064
786.57	0.064
786.90	0.063
787.23	0.062
787.56	0.061
787.89	0.059
788.21	0.059
788.54	0.057
788.87	0.057
789.20	0.057
789.53	0.057
789.85	0.058
790.18	0.060
790.51	0.059
790.84	0.057
791.17	0.054
791.49	0.057
791.82	0.059
792.15	0.060
792.48	0.058
792.80	0.058
793.13	0.058
793.46	0.059
793.79	0.058
794.11	0.057
794.44	0.055
794.77	0.055
795.10	0.053
795.42	0.055
795.75	0.055
796.08	0.058
796.40	0.058
796.73	0.059
797.06	0.058
797.39	0.055
797.71	0.052
798.04	0.049
798.37	0.047
798.69	0.048
799.02	0.045
799.35	0.045
799.67	0.047
800.00	0.048
800.32	0.048
800.65	0.046
800.98	0.049
801.30	0.048
801.63	0.049
801.96	0.048
802.28	0.049
802.61	0.045
802.93	0.044
803.26	0.043
803.59	0.043
803.91	0.041
804.24	0.041
804.56	0.045
804.89	0.048
805.22	0.051
805.54	0.052
805.87	0.054
806.19	0.052
806.52	0.049
806.84	0.048
807.17	0.050
807.49	0.049
807.82	0.047
808.14	0.048
808.47	0.051
808.79	0.052
809.12	0.051
809.44	0.051
809.77	0.050
810.09	0.051
810.42	0.050
810.74	0.051
811.07	0.047
811.39	0.045
811.72	0.046
812.04	0.045
812.37	0.043
812.69	0.041
813.02	0.043
813.34	0.044
813.67	0.044
813.99	0.043
814.31	0.045
814.64	0.048
814.96	0.049
815.29	0.051
815.61	0.049
815.93	0.049
816.26	0.048
816.58	0.047
816.91	0.049
817.23	0.047
817.55	0.047
817.88	0.044
818.20	0.042
818.52	0.038
818.85	0.039
819.17	0.038
819.50	0.042
819.82	0.042
820.14	0.048
820.47	0.051
820.79	0.052
821.11	0.048
821.44	0.046
821.76	0.045
822.08	0.048
822.40	0.048
822.73	0.052
823.05	0.051
823.37	0.049
823.70	0.047
824.02	0.050
824.34	0.052
824.66	0.053
824.99	0.053
825.31	0.057
825.63	0.056
825.95	0.055
826.28	0.049
826.60	0.049
826.92	0.050
827.24	0.054
827.57	0.057
827.89	0.057
828.21	0.056
828.53	0.055
828.85	0.051
829.18	0.051
829.50	0.048
829.82	0.048
830.14	0.047
830.46	0.044
830.78	0.047
831.11	0.047
831.43	0.051
831.75	0.048
832.07	0.049
832.39	0.047
832.71	0.050
833.03	0.050
833.36	0.054
833.68	0.054
834.00	0.055
834.32	0.051
834.64	0.049
834.96	0.045
835.28	0.047
835.60	0.049
835.92	0.054
836.25	0.054
836.57	0.050
836.89	0.049
837.21	0.051
837.53	0.052
837.85	0.049
838.17	0.050
838.49	0.049
838.81	0.048
839.13	0.044
839.45	0.046
839.77	0.048
840.09	0.046
840.41	0.046
840.73	0.047
841.05	0.051
841.37	0.050
841.69	0.047
842.01	0.042
842.33	0.042
842.65	0.040
842.97	0.041
843.29	0.043
843.61	0.044
843.93	0.047
844.25	0.045
844.57	0.042
844.89	0.035
845.21	0.035
845.53	0.029
845.85	0.030
846.16	0.030
846.48	0.035
846.80	0.037
847.12	0.037
847.44	0.038
847.76	0.042
848.08	0.041
848.40	0.044
848.72	0.041
849.04	0.043
849.35	0.041
849.67	0.041
849.99	0.038
850.31	0.035
850.63	0.038
850.95	0.042
851.27	0.047
851.58	0.047
851.90	0.043
852.22	0.041
852.54	0.042
852.86	0.045
853.17	0.045
853.49	0.044
853.81	0.041
854.13	0.042
854.45	0.045
854.76	0.042
855.08	0.042
855.40	0.041
855.72	0.048
856.03	0.047
856.35	0.051
856.67	0.049
856.99	0.051
857.30	0.050
857.62	0.053
857.94	0.053
858.26	0.049
858.57	0.048
858.89	0.049
859.21	0.052
859.53	0.051
859.84	0.052
860.16	0.054
860.48	0.050
860.79	0.049
861.11	0.047
861.43	0.050
861.74	0.051
862.06	0.052
862.38	0.052
862.69	0.050
863.01	0.046
863.33	0.043
863.64	0.043
863.96	0.047
864.27	0.054
864.59	0.055
864.91	0.055
865.22	0.054
865.54	0.057
865.85	0.055
866.17	0.049
866.49	0.043
866.80	0.041
867.12	0.044
867.43	0.047
867.75	0.049
868.07	0.047
868.38	0.045
868.70	0.045
869.01	0.049
869.33	0.053
869.64	0.057
869.96	0.053
870.27	0.052
870.59	0.051
870.90	0.050
871.22	0.052
871.53	0.048
871.85	0.050
872.16	0.045
872.48	0.043
872.79	0.036
873.11	0.036
873.42	0.037
873.74	0.039
874.05	0.039
874.37	0.035
874.68	0.034
875.00	0.031
875.31	0.033
875.62	0.038
875.94	0.041
876.25	0.042
876.57	0.039
876.88	0.038
877.20	0.042
877.51	0.042
877.82	0.049
878.14	0.046
878.45	0.046
878.77	0.040
879.08	0.039
879.39	0.037
879.71	0.039
880.02	0.041
880.33	0.046
880.65	0.041
880.96	0.040
881.27	0.036
881.59	0.043
881.90	0.045
882.21	0.043
882.53	0.039
882.84	0.038
883.15	0.042
883.47	0.042
883.78	0.039
884.09	0.039
884.41	0.036
884.72	0.035
885.03	0.034
885.34	0.034
885.66	0.035
885.97	0.031
886.28	0.034
886.59	0.032
886.91	0.035
887.22	0.031
887.53	0.037
887.84	0.038
888.16	0.039
888.47	0.035
888.78	0.031
889.09	0.030
889.40	0.032
889.72	0.035
890.03	0.035
890.34	0.041
890.65	0.046
890.96	0.045
891.28	0.037
891.59	0.033
891.90	0.035
892.21	0.037
892.52	0.034
892.83	0.037
893.14	0.040
893.46	0.042
893.77	0.039
894.08	0.039
894.39	0.040
894.70	0.043
895.01	0.045
895.32	0.047
895.63	0.049
895.95	0.048
896.26	0.048
896.57	0.051
896.88	0.052
897.19	0.057
897.50	0.058
897.81	0.060
898.12	0.060
898.43	0.054
898.74	0.054
899.05	0.056
899.36	0.059
899.67	0.058
899.98	0.054
900.29	0.056
900.60	0.055
900.91	0.055
901.22	0.052
901.53	0.056
901.84	0.055
902.15	0.056
902.46	0.050
902.77	0.052
903.08	0.053
903.39	0.057
903.70	0.056
904.01	0.057
904.32	0.056
904.63	0.055
904.94	0.055
905.25	0.056
905.56	0.056
905.87	0.059
906.18	0.061
906.48	0.062
906.79	0.062
907.10	0.060
907.41	0.062
907.72	0.060
908.03	0.058
908.34	0.055
908.65	0.054
908.96	0.053
909.26	0.053
909.57	0.053
909.88	0.054
910.19	0.054
910.50	0.055
910.81	0.053
911.11	0.057
911.42	0.056
911.73	0.056
912.04	0.053
912.35	0.056
912.66	0.059
912.96	0.059
913.27	0.054
913.58	0.056
913.89	0.061
914.19	0.067
914.50	0.068
914.81	0.063
915.12	0.058
915.43	0.053
915.73	0.057
916.04	0.060
916.35	0.066
916.65	0.063
916.96	0.068
917.27	0.066
917.58	0.069
917.88	0.065
918.19	0.063
918.50	0.060
918.80	0.058
919.11	0.056
919.42	0.059
919.73	0.062
920.03	0.064
920.34	0.060
920.65	0.057
920.95	0.057
921.26	0.059
921.56	0.056
921.87	0.056
922.18	0.052
922.48	0.053
922.79	0.052
923.10	0.054
923.40	0.054
923.71	0.055
924.01	0.054
924.32	0.058
924.63	0.058
924.93	0.060
925.24	0.055
925.54	0.061
925.85	0.057
926.16	0.058
926.46	0.055
926.77	0.062
927.07	0.070
927.38	0.076
927.68	0.077
927.99	0.073
928.29	0.068
928.60	0.063
928.90	0.060
929.21	0.062
929.51	0.067
929.82	0.070
930.12	0.068
930.43	0.070
930.73	0.068
931.04	0.072
931.34	0.072
931.65	0.077
931.95	0.075
932.26	0.073
932.56	0.077
932.87	0.083
933.17	0.083
933.47	0.077
933.78	0.072
934.08	0.074
934.39	0.077
934.69	0.081
935.00	0.077
935.30	0.069
935.60	0.066
935.91	0.074
936.21	0.082
936.51	0.089
936.82	0.083
937.12	0.084
937.43	0.084
937.73	0.086
938.03	0.091
938.34	0.092
938.64	0.095
938.94	0.093
939.25	0.100
939.55	0.110
939.85	0.114
940.16	0.108
940.46	0.105
940.76	0.104
941.06	0.109
941.37	0.100
941.67	0.095
941.97	0.095
942.28	0.103
942.58	0.104
942.88	0.097
943.18	0.097
943.49	0.101
943.79	0.110
944.09	0.111
944.39	0.110
944.70	0.106
945.00	0.106
945.30	0.101
945.60	0.102
945.91	0.106
946.21	0.117
946.51	0.118
946.81	0.119
947.11	0.127
947.41	0.124
947.72	0.128
948.02	0.122
948.32	0.132
948.62	0.131
948.92	0.139
949.22	0.142
949.53	0.142
949.83	0.139
950.13	0.136
950.43	0.136
950.73	0.139
951.03	0.145
951.33	0.150
951.63	0.154
951.94	0.156
952.24	0.167
952.54	0.169
952.84	0.167
953.14	0.167
953.44	0.167
953.74	0.165
954.04	0.164
954.34	0.177
954.64	0.186
954.94	0.186
955.24	0.178
955.54	0.179
955.84	0.178
956.14	0.171
956.44	0.175
956.74	0.172
957.04	0.176
957.34	0.174
957.64	0.180
957.94	0.182
958.24	0.180
958.54	0.180
958.84	0.183
959.14	0.185
959.44	0.185
959.74	0.186
960.04	0.191
960.34	0.193
960.64	0.200
960.94	0.204
961.24	0.199
961.54	0.195
961.84	0.183
962.14	0.191
962.43	0.198
962.73	0.207
963.03	0.209
963.33	0.201
963.63	0.199
963.93	0.196
964.23	0.202
964.53	0.202
964.83	0.204
965.12	0.203
965.42	0.205
965.72	0.197
966.02	0.190
966.32	0.185
966.62	0.192
966.91	0.195
967.21	0.196
967.51	0.196
967.81	0.198
968.11	0.209
968.40	0.202
968.70	0.198
969.00	0.190
969.30	0.187
969.60	0.188
969.89	0.189
970.19	0.198
970.49	0.204
970.79	0.202
971.08	0.194
971.38	0.198
971.68	0.199
971.97	0.200
972.27	0.188
972.57	0.183
972.87	0.193
973.16	0.201
973.46	0.204
973.76	0.200
974.05	0.199
974.35	0.196
974.65	0.198
974.94	0.196
975.24	0.203
975.54	0.209
975.83	0.229
976.13	0.228
976.43	0.226
976.72	0.208
977.02	0.206
977.32	0.201
977.61	0.202
977.91	0.197
978.20	0.195
978.50	0.197
978.80	0.205
979.09	0.205
979.39	0.198
979.68	0.197
979.98	0.199
980.28	0.201
980.57	0.196
980.87	0.202
981.16	0.200
981.46	0.196
981.75	0.188
982.05	0.200
982.34	0.210
982.64	0.219
982.93	0.212
983.23	0.206
983.52	0.186
983.82	0.185
984.11	0.185
984.41	0.194
984.70	0.193
985.00	0.184
985.29	0.179
985.59	0.177
985.88	0.182
986.18	0.192
986.47	0.187
986.77	0.188
987.06	0.177
987.35	0.184
987.65	0.191
987.94	0.209
988.24	0.193
988.53	0.187
988.83	0.175
989.12	0.184
989.41	0.182
989.71	0.178
990.00	0.177
990.29	0.181
990.59	0.175
990.88	0.177
991.18	0.165
991.47	0.174
991.76	0.172
992.06	0.174
992.35	0.173
992.64	0.166
992.94	0.176
993.23	0.160
993.52	0.168
993.82	0.153
994.11	0.169
994.40	0.164
994.69	0.172
994.99	0.158
995.28	0.151
995.57	0.152
995.87	0.159
996.16	0.165
996.45	0.165
996.74	0.158
997.04	0.169
997.33	0.171
997.62	0.171
997.91	0.165
998.20	0.162
998.50	0.166
998.79	0.166
999.08	0.171
999.37	0.172
999.67	0.164
999.96	0.158
1000.25	0.153
1000.54	0.156
1000.83	0.165
1001.12	0.175
1001.42	0.167
1001.71	0.138
1002.00	0.138
1002.29	0.142
1002.58	0.153
1002.87	0.149
1003.16	0.153
1003.46	0.156
1003.75	0.153
1004.04	0.153
1004.33	0.149
1004.62	0.149
1004.91	0.131
1005.20	0.125
1005.49	0.133
1005.78	0.144
1006.07	0.156
1006.36	0.136
1006.65	0.125
1006.95	0.107
1007.24	0.121
1007.53	0.126
1007.82	0.134
1008.11	0.129
1008.40	0.135
1008.69	0.128
1008.98	0.116
1009.27	0.111
1009.56	0.118
1009.85	0.126
1010.14	0.130
1010.43	0.126
1010.72	0.136
1011.01	0.135
1011.30	0.146
1011.59	0.121
1011.88	0.118
1012.16	0.116
1012.45	0.132
1012.74	0.146
1013.03	0.149
1013.32	0.151
1013.61	0.139
1013.90	0.146
1014.19	0.171
1014.48	0.171
1014.77	0.152
1015.06	0.129
1015.35	0.128
1015.63	0.141
1015.92	0.141
1016.21	0.136
1016.50	0.135
1016.79	0.133
1017.08	0.119
1017.37	0.110
1017.65	0.102
1017.94	0.130
1018.23	0.130
1018.52	0.145
1018.81	0.133
1019.09	0.144
1019.38	0.120
1019.67	0.120
1019.96	0.113
1020.25	0.127
1020.53	0.141
1020.82	0.138
1021.11	0.134
1021.40	0.114
1021.69	0.099
1021.97	0.090
1022.26	0.102
1022.55	0.112
1022.83	0.118
1023.12	0.110
1023.41	0.113
1023.70	0.132
1023.98	0.131
1024.27	0.124
1024.56	0.107
1024.84	0.097
1025.13	0.103
1025.42	0.116
1025.71	0.134
1025.99	0.143
1026.28	0.113
1026.57	0.109
1026.85	0.086
1027.14	0.103
1027.42	0.093
1027.71	0.119
1028.00	0.116
1028.28	0.117
1028.57	0.120
1028.86	0.113
1029.14	0.132
1029.43	0.122
1029.71	0.129
1030.00	0.130
1030.29	0.098
1030.57	0.116
1030.86	0.095
1031.14	0.106
1031.43	0.068
1031.71	0.079
1032.00	0.099
1032.28	0.118
1032.57	0.122
1032.86	0.111
1033.14	0.113
1033.43	0.119
1033.71	0.142
1034.00	0.152
1034.28	0.154
1034.57	0.129
1034.85	0.093
1035.14	0.079
1035.42	0.084
1035.71	0.119
1035.99	0.091
1036.27	0.092
1036.56	0.084
1036.84	0.095
1037.13	0.090
1037.41	0.116
1037.70	0.127
1037.98	0.126
1038.27	0.095
1038.55	0.083
1038.83	0.086
1039.12	0.068
1039.40	0.083
1039.69	0.092
1039.97	0.149
1040.25	0.125
1040.54	0.102
1040.82	0.085
1041.10	0.107
1041.39	0.126
1041.67	0.129
1041.95	0.135
1042.24	0.115
1042.52	0.082
1042.80	0.059
1043.09	0.111
1043.37	0.086
1043.65	0.076
1043.94	0.031
1044.22	0.070
1044.50	0.140
1044.79	0.139
1045.07	0.097
1045.35	0.049
1045.63	0.078
1045.92	0.156
1046.20	0.142
1046.48	0.140
1046.76	0.076
1047.05	0.052
1047.33	0.064
1047.61	0.102
1047.89	0.145
1048.18	0.116
1048.46	0.104
1048.74	0.116
1049.02	0.128
1049.30	0.163
1049.59	0.178
1049.87	0.186
1050.15	0.180
1050.43	0.125
1050.71	0.125
1050.99	0.102
1051.28	0.170
1051.56	0.141
1051.84	0.046
>>>>>End Spectral Data<<<<<
