OOIBase32 Version 2.0.1.2 Data File
++++++++++++++++++++++++++++++++++++
Date: 01-30-2024, 12:11:49
User: Valued Ocean Optics Customer
Spectrometer Serial Number: I2J345
Spectrometer Channel: Master
Integration Time (msec): 100
Spectra Averaged: 1
Boxcar Smoothing: 1
Correct for Electrical Dark: Disabled
Time Normalized: Disabled
Dual-beam Reference: Disabled
Reference Channel: Master
Temperature: Not acquired
Spectrometer Type: S2000
ADC Type: USB2000
Number of Pixels in File: 2048
Graph Title: 
>>>>>Begin Spectral Data<<<<<
367.70	0.000
368.08	0.000
368.46	0.000
368.84	0.000
369.22	0.000
369.60	-0.699
369.98	0.000
370.36	0.176
370.74	0.000
371.12	0.000
371.50	0.000
371.88	0.000
372.25	0.000
372.63	0.000
373.01	0.000
373.39	0.000
373.77	0.000
374.15	0.000
374.53	0.000
374.91	0.000
375.29	0.000
375.67	0.000
376.04	0.000
376.42	0.000
376.80	0.000
377.18	0.000
377.56	0.176
377.94	0.204
378.32	0.000
378.69	0.146
379.07	0.276
379.45	1.041
379.83	0.000
380.21	0.000
380.59	0.398
380.96	0.512
381.34	0.331
381.72	0.301
382.10	0.336
382.48	0.477
382.86	0.903
383.23	0.000
383.61	0.000
383.99	0.000
384.37	0.000
384.75	0.000
385.12	0.000
385.50	0.000
385.88	0.000
386.26	0.000
386.63	0.000
387.01	0.000
387.39	0.000
387.77	0.000
388.14	0.602
388.52	0.000
388.90	0.778
389.28	0.000
389.65	0.523
390.03	0.125
390.41	-0.125
390.79	0.000
391.16	0.000
391.54	0.000
391.92	0.000
392.30	0.000
392.67	0.544
393.05	0.556
393.43	0.385
393.80	0.255
394.18	0.380
394.56	0.000
394.93	0.574
395.31	0.336
395.69	0.531
396.06	0.938
396.44	0.845
396.82	0.444
397.19	0.452
397.57	0.398
397.95	0.301
398.32	0.477
398.70	0.602
399.08	0.419
399.45	0.217
399.83	0.189
400.21	0.164
400.58	0.267
400.96	0.183
401.34	0.442
401.71	0.372
402.09	1.398
402.46	0.385
402.84	0.141
403.22	0.058
403.59	0.325
403.97	0.459
404.34	0.383
404.72	0.222
405.10	0.166
405.47	0.048
405.85	0.125
406.22	0.160
406.60	0.374
406.97	0.564
407.35	0.000
407.73	0.000
408.10	0.000
408.48	1.243
408.85	0.477
409.23	0.535
409.60	0.505
409.98	0.454
410.35	0.536
410.73	0.402
411.10	0.609
411.48	0.561
411.85	0.628
412.23	0.488
412.60	0.426
412.98	0.341
413.35	0.254
413.73	0.234
414.10	0.280
414.48	0.380
414.85	0.447
415.23	0.621
415.60	0.637
415.98	0.632
416.35	0.562
416.73	0.609
417.10	0.911
417.48	0.871
417.85	1.049
418.23	0.574
418.60	0.635
418.98	0.490
419.35	0.496
419.72	0.439
420.10	0.519
420.47	0.489
420.85	0.495
421.22	0.454
421.60	0.471
421.97	0.444
422.34	0.525
422.72	0.533
423.09	0.740
423.47	0.579
423.84	0.613
424.21	0.513
424.59	0.516
424.96	0.602
425.34	0.544
425.71	0.597
426.08	0.577
426.46	0.818
426.83	0.973
427.20	0.765
427.58	0.531
427.95	0.446
428.32	0.481
428.70	0.564
429.07	0.489
429.44	0.505
429.82	0.564
430.19	0.641
430.56	0.586
430.94	0.573
431.31	0.561
431.68	0.582
432.06	0.509
432.43	0.593
432.80	0.529
433.18	0.627
433.55	0.518
433.92	0.547
434.29	0.540
434.67	0.602
435.04	0.602
435.41	0.526
435.79	0.520
436.16	0.568
436.53	0.529
436.90	0.465
437.28	0.409
437.65	0.445
438.02	0.455
438.39	0.497
438.77	0.557
439.14	0.559
439.51	0.497
439.88	0.483
440.25	0.522
440.63	0.615
441.00	0.606
441.37	0.631
441.74	0.604
442.12	0.595
442.49	0.606
442.86	0.640
443.23	0.623
443.60	0.607
443.98	0.516
444.35	0.534
444.72	0.510
445.09	0.549
445.46	0.514
445.83	0.523
446.21	0.548
446.58	0.573
446.95	0.556
447.32	0.554
447.69	0.539
448.06	0.525
448.43	0.507
448.81	0.498
449.18	0.501
449.55	0.495
449.92	0.492
450.29	0.483
450.66	0.519
451.03	0.518
451.40	0.514
451.77	0.495
452.15	0.502
452.52	0.505
452.89	0.469
453.26	0.453
453.63	0.469
454.00	0.518
454.37	0.512
454.74	0.502
455.11	0.459
455.48	0.473
455.85	0.457
456.22	0.476
456.59	0.458
456.97	0.458
457.34	0.430
457.71	0.418
458.08	0.421
458.45	0.444
458.82	0.466
459.19	0.467
459.56	0.449
459.93	0.460
460.30	0.446
460.67	0.445
461.04	0.436
461.41	0.453
461.78	0.440
462.15	0.406
462.52	0.398
462.89	0.405
463.26	0.413
463.63	0.404
464.00	0.398
464.37	0.407
464.74	0.401
465.11	0.388
465.47	0.369
465.84	0.374
466.21	0.387
466.58	0.376
466.95	0.375
467.32	0.371
467.69	0.392
468.06	0.373
468.43	0.373
468.80	0.359
469.17	0.361
469.54	0.353
469.91	0.364
470.28	0.368
470.64	0.372
471.01	0.358
471.38	0.336
471.75	0.322
472.12	0.322
472.49	0.323
472.86	0.315
473.23	0.308
473.60	0.312
473.96	0.303
474.33	0.310
474.70	0.305
475.07	0.307
475.44	0.292
475.81	0.289
476.17	0.289
476.54	0.291
476.91	0.296
477.28	0.300
477.65	0.290
478.02	0.276
478.38	0.271
478.75	0.261
479.12	0.258
479.49	0.254
479.86	0.255
480.22	0.260
480.59	0.261
480.96	0.262
481.33	0.258
481.70	0.255
482.06	0.259
482.43	0.254
482.80	0.251
483.17	0.248
483.53	0.242
483.90	0.232
484.27	0.224
484.64	0.216
485.00	0.212
485.37	0.213
485.74	0.219
486.11	0.228
486.47	0.222
486.84	0.216
487.21	0.203
487.58	0.203
487.94	0.203
488.31	0.203
488.68	0.199
489.04	0.192
489.41	0.191
489.78	0.189
490.14	0.194
490.51	0.196
490.88	0.197
491.24	0.190
491.61	0.183
491.98	0.174
492.34	0.169
492.71	0.167
493.08	0.171
493.44	0.170
493.81	0.168
494.18	0.165
494.54	0.164
494.91	0.160
495.28	0.161
495.64	0.160
496.01	0.164
496.37	0.159
496.74	0.161
497.11	0.158
497.47	0.157
497.84	0.150
498.21	0.148
498.57	0.148
498.94	0.153
499.30	0.152
499.67	0.148
500.03	0.140
500.40	0.138
500.77	0.131
501.13	0.136
501.50	0.134
501.86	0.130
502.23	0.126
502.59	0.124
502.96	0.131
503.32	0.126
503.69	0.127
504.06	0.127
504.42	0.124
504.79	0.121
505.15	0.115
505.52	0.114
505.88	0.114
506.25	0.113
506.61	0.108
506.98	0.107
507.34	0.107
507.71	0.109
508.07	0.105
508.44	0.100
508.80	0.102
509.17	0.104
509.53	0.104
509.89	0.100
510.26	0.100
510.62	0.103
510.99	0.101
511.35	0.099
511.72	0.099
512.08	0.101
512.45	0.099
512.81	0.096
513.18	0.095
513.54	0.097
513.90	0.096
514.27	0.094
514.63	0.093
515.00	0.093
515.36	0.086
515.72	0.080
516.09	0.080
516.45	0.081
516.82	0.085
517.18	0.082
517.54	0.079
517.91	0.076
518.27	0.074
518.63	0.076
519.00	0.075
519.36	0.077
519.73	0.078
520.09	0.081
520.45	0.076
520.82	0.072
521.18	0.067
521.54	0.069
521.91	0.072
522.27	0.070
522.63	0.071
523.00	0.071
523.36	0.073
523.72	0.071
524.08	0.069
524.45	0.064
524.81	0.063
525.17	0.059
525.54	0.059
525.90	0.064
526.26	0.065
526.63	0.066
526.99	0.060
527.35	0.059
527.71	0.058
528.08	0.056
528.44	0.055
528.80	0.057
529.16	0.057
529.53	0.058
529.89	0.054
530.25	0.055
530.61	0.056
530.98	0.057
531.34	0.057
531.70	0.057
532.06	0.058
532.42	0.056
532.79	0.052
533.15	0.049
533.51	0.051
533.87	0.054
534.23	0.053
534.60	0.050
534.96	0.047
535.32	0.047
535.68	0.050
536.04	0.048
536.40	0.050
536.77	0.046
537.13	0.049
537.49	0.046
537.85	0.047
538.21	0.046
538.57	0.045
538.93	0.041
539.30	0.040
539.66	0.039
540.02	0.042
540.38	0.044
540.74	0.045
541.10	0.046
541.46	0.042
541.82	0.039
542.18	0.036
542.55	0.040
542.91	0.040
543.27	0.044
543.63	0.039
543.99	0.044
544.35	0.042
544.71	0.044
545.07	0.042
545.43	0.042
545.79	0.042
546.15	0.038
546.51	0.035
546.87	0.032
547.23	0.032
547.59	0.032
547.95	0.035
548.32	0.036
548.68	0.034
549.04	0.031
549.40	0.030
549.76	0.032
550.12	0.031
550.48	0.032
550.84	0.034
551.20	0.034
551.56	0.033
551.92	0.031
552.28	0.032
552.63	0.034
552.99	0.035
553.35	0.033
553.71	0.032
554.07	0.030
554.43	0.031
554.79	0.026
555.15	0.029
555.51	0.031
555.87	0.034
556.23	0.030
556.59	0.027
556.95	0.026
557.31	0.025
557.67	0.026
558.03	0.025
558.39	0.024
558.74	0.026
559.10	0.025
559.46	0.026
559.82	0.024
560.18	0.027
560.54	0.027
560.90	0.026
561.26	0.021
561.61	0.019
561.97	0.017
562.33	0.018
562.69	0.018
563.05	0.018
563.41	0.019
563.77	0.020
564.12	0.022
564.48	0.023
564.84	0.022
565.20	0.023
565.56	0.022
565.92	0.022
566.27	0.019
566.63	0.018
566.99	0.018
567.35	0.020
567.71	0.019
568.06	0.021
568.42	0.017
568.78	0.018
569.14	0.018
569.50	0.021
569.85	0.020
570.21	0.018
570.57	0.017
570.93	0.018
571.28	0.018
571.64	0.017
572.00	0.015
572.36	0.015
572.71	0.016
573.07	0.017
573.43	0.016
573.78	0.012
574.14	0.011
574.50	0.012
574.86	0.010
575.21	0.010
575.57	0.010
575.93	0.012
576.28	0.011
576.64	0.009
577.00	0.008
577.35	0.010
577.71	0.012
578.07	0.012
578.42	0.012
578.78	0.013
579.14	0.014
579.49	0.016
579.85	0.017
580.21	0.017
580.56	0.016
580.92	0.016
581.28	0.013
581.63	0.011
581.99	0.008
582.35	0.008
582.70	0.009
583.06	0.007
583.41	0.007
583.77	0.006
584.13	0.009
584.48	0.013
584.84	0.010
585.19	0.008
585.55	0.004
585.91	0.006
586.26	0.008
586.62	0.008
586.97	0.006
587.33	0.004
587.68	0.006
588.04	0.007
588.39	0.005
588.75	0.003
589.11	0.002
589.46	0.002
589.82	0.002
590.17	0.002
590.53	0.002
590.88	0.000
591.24	-0.000
591.59	0.001
591.95	0.003
592.30	0.000
592.66	0.002
593.01	0.002
593.37	0.005
593.72	0.003
594.08	0.001
594.43	0.003
594.79	0.002
595.14	0.007
595.49	0.005
595.85	0.005
596.20	0.002
596.56	0.002
596.91	0.003
597.27	0.002
597.62	0.001
597.98	-0.003
598.33	-0.003
598.68	-0.001
599.04	-0.000
599.39	-0.000
599.75	-0.000
600.10	-0.000
600.45	-0.004
600.81	-0.006
601.16	-0.008
601.52	-0.005
601.87	-0.006
602.22	-0.006
602.58	-0.005
602.93	-0.005
603.28	-0.003
603.64	-0.003
603.99	-0.003
604.35	-0.004
604.70	-0.005
605.05	-0.004
605.41	-0.004
605.76	-0.002
606.11	-0.002
606.47	-0.000
606.82	-0.000
607.17	0.003
607.52	0.001
607.88	0.000
608.23	-0.003
608.58	-0.000
608.94	0.001
609.29	0.000
609.64	-0.004
610.00	-0.005
610.35	-0.008
610.70	-0.008
611.05	-0.008
611.41	-0.006
611.76	-0.006
612.11	-0.007
612.46	-0.006
612.82	-0.005
613.17	-0.003
613.52	-0.006
613.87	-0.009
614.23	-0.012
614.58	-0.013
614.93	-0.010
615.28	-0.008
615.63	-0.007
615.99	-0.011
616.34	-0.014
616.69	-0.014
617.04	-0.012
617.39	-0.010
617.75	-0.008
618.10	-0.008
618.45	-0.009
618.80	-0.010
619.15	-0.009
619.50	-0.007
619.86	-0.008
620.21	-0.009
620.56	-0.008
620.91	-0.009
621.26	-0.009
621.61	-0.007
621.96	-0.006
622.32	-0.007
622.67	-0.009
623.02	-0.010
623.37	-0.012
623.72	-0.014
624.07	-0.016
624.42	-0.017
624.77	-0.017
625.12	-0.017
625.47	-0.014
625.83	-0.013
626.18	-0.009
626.53	-0.008
626.88	-0.010
627.23	-0.010
627.58	-0.009
627.93	-0.006
628.28	-0.008
628.63	-0.011
628.98	-0.013
629.33	-0.012
629.68	-0.011
630.03	-0.012
630.38	-0.012
630.73	-0.012
631.08	-0.012
631.43	-0.014
631.78	-0.016
632.13	-0.016
632.48	-0.016
632.83	-0.014
633.18	-0.014
633.53	-0.012
633.88	-0.014
634.23	-0.015
634.58	-0.015
634.93	-0.017
635.28	-0.016
635.63	-0.017
635.98	-0.015
636.33	-0.016
636.68	-0.016
637.03	-0.016
637.38	-0.015
637.73	-0.015
638.08	-0.017
638.42	-0.016
638.77	-0.015
639.12	-0.014
639.47	-0.013
639.82	-0.014
640.17	-0.015
640.52	-0.016
640.87	-0.015
641.22	-0.015
641.57	-0.018
641.91	-0.019
642.26	-0.021
642.61	-0.019
642.96	-0.019
643.31	-0.016
643.66	-0.015
644.01	-0.014
644.35	-0.015
644.70	-0.014
645.05	-0.014
645.40	-0.015
645.75	-0.017
646.10	-0.019
646.44	-0.019
646.79	-0.019
647.14	-0.018
647.49	-0.018
647.84	-0.019
648.18	-0.020
648.53	-0.019
648.88	-0.018
649.23	-0.016
649.57	-0.017
649.92	-0.018
650.27	-0.018
650.62	-0.017
650.97	-0.016
651.31	-0.016
651.66	-0.018
652.01	-0.018
652.36	-0.019
652.70	-0.020
653.05	-0.023
653.40	-0.024
653.74	-0.024
654.09	-0.022
654.44	-0.022
654.79	-0.021
655.13	-0.020
655.48	-0.019
655.83	-0.019
656.17	-0.020
656.52	-0.020
656.87	-0.021
657.21	-0.022
657.56	-0.022
657.91	-0.020
658.25	-0.021
658.60	-0.022
658.95	-0.023
659.29	-0.020
659.64	-0.021
659.99	-0.021
660.33	-0.022
660.68	-0.023
661.03	-0.023
661.37	-0.022
661.72	-0.021
662.06	-0.020
662.41	-0.020
662.76	-0.019
663.10	-0.020
663.45	-0.020
663.79	-0.022
664.14	-0.023
664.49	-0.023
664.83	-0.022
665.18	-0.023
665.52	-0.023
665.87	-0.022
666.21	-0.021
666.56	-0.019
666.90	-0.018
667.25	-0.019
667.60	-0.019
667.94	-0.022
668.29	-0.022
668.63	-0.022
668.98	-0.021
669.32	-0.022
669.67	-0.026
670.01	-0.025
670.36	-0.027
670.70	-0.023
671.05	-0.023
671.39	-0.019
671.74	-0.019
672.08	-0.019
672.43	-0.021
672.77	-0.023
673.12	-0.022
673.46	-0.021
673.80	-0.018
674.15	-0.019
674.49	-0.020
674.84	-0.022
675.18	-0.021
675.53	-0.022
675.87	-0.021
676.21	-0.022
676.56	-0.020
676.90	-0.021
677.25	-0.020
677.59	-0.022
677.94	-0.021
678.28	-0.021
678.62	-0.019
678.97	-0.019
679.31	-0.021
679.65	-0.022
680.00	-0.023
680.34	-0.023
680.69	-0.024
681.03	-0.023
681.37	-0.023
681.72	-0.025
682.06	-0.025
682.40	-0.026
682.75	-0.025
683.09	-0.025
683.43	-0.025
683.78	-0.023
684.12	-0.022
684.46	-0.023
684.81	-0.023
685.15	-0.022
685.49	-0.020
685.83	-0.020
686.18	-0.019
686.52	-0.022
686.86	-0.021
687.21	-0.023
687.55	-0.024
687.89	-0.025
688.23	-0.025
688.58	-0.023
688.92	-0.024
689.26	-0.026
689.60	-0.028
689.95	-0.027
690.29	-0.025
690.63	-0.025
690.97	-0.026
691.32	-0.028
691.66	-0.028
692.00	-0.028
692.34	-0.028
692.68	-0.028
693.03	-0.027
693.37	-0.025
693.71	-0.024
694.05	-0.025
694.39	-0.027
694.73	-0.028
695.08	-0.027
695.42	-0.027
695.76	-0.027
696.10	-0.027
696.44	-0.026
696.78	-0.026
697.13	-0.025
697.47	-0.024
697.81	-0.024
698.15	-0.025
698.49	-0.026
698.83	-0.025
699.17	-0.025
699.51	-0.027
699.85	-0.027
700.20	-0.026
700.54	-0.022
700.88	-0.022
701.22	-0.025
701.56	-0.026
701.90	-0.027
702.24	-0.025
702.58	-0.026
702.92	-0.025
703.26	-0.027
703.60	-0.026
703.94	-0.026
704.28	-0.024
704.62	-0.022
704.96	-0.020
705.30	-0.021
705.65	-0.023
705.99	-0.023
706.33	-0.023
706.67	-0.022
707.01	-0.023
707.35	-0.021
707.69	-0.021
708.03	-0.021
708.37	-0.025
708.71	-0.024
709.04	-0.024
709.38	-0.021
709.72	-0.023
710.06	-0.025
710.40	-0.025
710.74	-0.026
711.08	-0.026
711.42	-0.028
711.76	-0.026
712.10	-0.028
712.44	-0.027
712.78	-0.026
713.12	-0.026
713.46	-0.027
713.80	-0.028
714.14	-0.027
714.47	-0.025
714.81	-0.025
715.15	-0.024
715.49	-0.023
715.83	-0.023
716.17	-0.024
716.51	-0.025
716.85	-0.025
717.18	-0.024
717.52	-0.024
717.86	-0.027
718.20	-0.028
718.54	-0.028
718.88	-0.026
719.22	-0.027
719.55	-0.027
719.89	-0.026
720.23	-0.025
720.57	-0.026
720.91	-0.030
721.24	-0.031
721.58	-0.032
721.92	-0.030
722.26	-0.031
722.60	-0.030
722.93	-0.032
723.27	-0.031
723.61	-0.032
723.95	-0.029
724.28	-0.030
724.62	-0.027
724.96	-0.029
725.30	-0.027
725.63	-0.028
725.97	-0.027
726.31	-0.030
726.65	-0.029
726.98	-0.030
727.32	-0.027
727.66	-0.027
728.00	-0.026
728.33	-0.026
728.67	-0.026
729.01	-0.025
729.34	-0.027
729.68	-0.026
730.02	-0.025
730.35	-0.023
730.69	-0.025
731.03	-0.026
731.36	-0.024
731.70	-0.021
732.04	-0.021
732.37	-0.021
732.71	-0.021
733.05	-0.022
733.38	-0.022
733.72	-0.023
734.06	-0.022
734.39	-0.023
734.73	-0.023
735.06	-0.021
735.40	-0.019
735.74	-0.020
736.07	-0.022
736.41	-0.022
736.74	-0.021
737.08	-0.021
737.41	-0.019
737.75	-0.018
738.09	-0.017
738.42	-0.017
738.76	-0.018
739.09	-0.016
739.43	-0.015
739.76	-0.016
740.10	-0.019
740.43	-0.020
740.77	-0.019
741.11	-0.017
741.44	-0.019
741.78	-0.021
742.11	-0.021
742.45	-0.022
742.78	-0.020
743.12	-0.022
743.45	-0.020
743.79	-0.019
744.12	-0.017
744.45	-0.017
744.79	-0.016
745.12	-0.017
745.46	-0.017
745.79	-0.020
746.13	-0.022
746.46	-0.021
746.80	-0.020
747.13	-0.021
747.47	-0.024
747.80	-0.025
748.13	-0.021
748.47	-0.018
748.80	-0.018
749.14	-0.018
749.47	-0.017
749.80	-0.018
750.14	-0.022
750.47	-0.025
750.81	-0.026
751.14	-0.026
751.47	-0.025
751.81	-0.025
752.14	-0.022
752.47	-0.021
752.81	-0.017
753.14	-0.018
753.47	-0.017
753.81	-0.019
754.14	-0.020
754.47	-0.022
754.81	-0.022
755.14	-0.022
755.47	-0.022
755.81	-0.022
756.14	-0.023
756.47	-0.022
756.81	-0.022
757.14	-0.021
757.47	-0.022
757.80	-0.024
758.14	-0.025
758.47	-0.024
758.80	-0.024
759.14	-0.020
759.47	-0.020
759.80	-0.021
760.13	-0.022
760.47	-0.022
760.80	-0.022
761.13	-0.021
761.46	-0.021
761.79	-0.022
762.13	-0.024
762.46	-0.024
762.79	-0.023
763.12	-0.025
763.46	-0.026
763.79	-0.024
764.12	-0.021
764.45	-0.020
764.78	-0.021
765.11	-0.024
765.45	-0.022
765.78	-0.024
766.11	-0.024
766.44	-0.025
766.77	-0.024
767.10	-0.026
767.44	-0.030
767.77	-0.030
768.10	-0.028
768.43	-0.025
768.76	-0.026
769.09	-0.024
769.42	-0.024
769.75	-0.026
770.08	-0.024
770.42	-0.023
770.75	-0.021
771.08	-0.023
771.41	-0.021
771.74	-0.019
772.07	-0.016
772.40	-0.017
772.73	-0.021
773.06	-0.026
773.39	-0.025
773.72	-0.022
774.05	-0.020
774.38	-0.020
774.71	-0.019
775.04	-0.019
775.37	-0.017
775.70	-0.018
776.03	-0.016
776.36	-0.018
776.69	-0.019
777.02	-0.022
777.35	-0.023
777.68	-0.021
778.01	-0.021
778.34	-0.019
778.67	-0.019
779.00	-0.019
779.33	-0.022
779.66	-0.023
779.99	-0.022
780.32	-0.019
780.65	-0.019
780.98	-0.015
781.31	-0.014
781.64	-0.012
781.97	-0.016
782.30	-0.017
782.63	-0.020
782.95	-0.020
783.28	-0.020
783.61	-0.019
783.94	-0.017
784.27	-0.018
784.60	-0.020
784.93	-0.018
785.26	-0.018
785.59	-0.016
785.91	-0.017
786.24	-0.017
786.57	-0.018
786.90	-0.018
787.23	-0.019
787.56	-0.019
787.89	-0.020
788.21	-0.019
788.54	-0.018
788.87	-0.019
789.20	-0.022
789.53	-0.023
789.85	-0.021
790.18	-0.019
790.51	-0.019
790.84	-0.022
791.17	-0.025
791.49	-0.025
791.82	-0.023
792.15	-0.025
792.48	-0.028
792.80	-0.027
793.13	-0.026
793.46	-0.022
793.79	-0.022
794.11	-0.021
794.44	-0.024
794.77	-0.026
795.10	-0.028
795.42	-0.026
795.75	-0.025
796.08	-0.022
796.40	-0.022
796.73	-0.021
797.06	-0.021
797.39	-0.021
797.71	-0.024
798.04	-0.027
798.37	-0.028
798.69	-0.029
799.02	-0.031
799.35	-0.033
799.67	-0.030
800.00	-0.029
800.32	-0.029
800.65	-0.033
800.98	-0.030
801.30	-0.029
801.63	-0.025
801.96	-0.025
802.28	-0.023
802.61	-0.026
802.93	-0.027
803.26	-0.028
803.59	-0.032
803.91	-0.034
804.24	-0.035
804.56	-0.030
804.89	-0.027
805.22	-0.026
805.54	-0.027
805.87	-0.028
806.19	-0.028
806.52	-0.029
806.84	-0.029
807.17	-0.026
807.49	-0.027
807.82	-0.026
808.14	-0.029
808.47	-0.025
808.79	-0.027
809.12	-0.028
809.44	-0.027
809.77	-0.026
810.09	-0.024
810.42	-0.024
810.74	-0.025
811.07	-0.025
811.39	-0.024
811.72	-0.021
812.04	-0.022
812.37	-0.023
812.69	-0.028
813.02	-0.027
813.34	-0.029
813.67	-0.028
813.99	-0.033
814.31	-0.030
814.64	-0.028
814.96	-0.023
815.29	-0.021
815.61	-0.022
815.93	-0.024
816.26	-0.026
816.58	-0.026
816.91	-0.025
817.23	-0.025
817.55	-0.024
817.88	-0.023
818.20	-0.024
818.52	-0.027
818.85	-0.029
819.17	-0.028
819.50	-0.028
819.82	-0.030
820.14	-0.029
820.47	-0.027
820.79	-0.024
821.11	-0.023
821.44	-0.024
821.76	-0.023
822.08	-0.024
822.40	-0.026
822.73	-0.023
823.05	-0.023
823.37	-0.023
823.70	-0.027
824.02	-0.024
824.34	-0.022
824.66	-0.021
824.99	-0.023
825.31	-0.019
825.63	-0.018
825.95	-0.018
826.28	-0.021
826.60	-0.021
826.92	-0.021
827.24	-0.018
827.57	-0.017
827.89	-0.018
828.21	-0.020
828.53	-0.023
828.85	-0.024
829.18	-0.022
829.50	-0.020
829.82	-0.019
830.14	-0.021
830.46	-0.024
830.78	-0.022
831.11	-0.022
831.43	-0.018
831.75	-0.023
832.07	-0.022
832.39	-0.024
832.71	-0.019
833.03	-0.020
833.36	-0.015
833.68	-0.018
834.00	-0.018
834.32	-0.023
834.64	-0.020
834.96	-0.021
835.28	-0.020
835.60	-0.022
835.92	-0.023
836.25	-0.024
836.57	-0.027
836.89	-0.028
837.21	-0.026
837.53	-0.027
837.85	-0.027
838.17	-0.027
838.49	-0.028
838.81	-0.028
839.13	-0.029
839.45	-0.026
839.77	-0.024
840.09	-0.025
840.41	-0.025
840.73	-0.023
841.05	-0.017
841.37	-0.018
841.69	-0.017
842.01	-0.020
842.33	-0.016
842.65	-0.018
842.97	-0.019
843.29	-0.018
843.61	-0.017
843.93	-0.016
844.25	-0.020
844.57	-0.022
844.89	-0.026
845.21	-0.025
845.53	-0.027
845.85	-0.026
846.16	-0.026
846.48	-0.022
846.80	-0.021
847.12	-0.021
847.44	-0.021
847.76	-0.021
848.08	-0.022
848.40	-0.023
848.72	-0.023
849.04	-0.022
849.35	-0.024
849.67	-0.026
849.99	-0.026
850.31	-0.025
850.63	-0.022
850.95	-0.018
851.27	-0.017
851.58	-0.019
851.90	-0.022
852.22	-0.021
852.54	-0.021
852.86	-0.020
853.17	-0.021
853.49	-0.023
853.81	-0.024
854.13	-0.021
854.45	-0.021
854.76	-0.022
855.08	-0.023
855.40	-0.021
855.72	-0.019
856.03	-0.019
856.35	-0.015
856.67	-0.015
856.99	-0.016
857.30	-0.018
857.62	-0.018
857.94	-0.020
858.26	-0.021
858.57	-0.019
858.89	-0.016
859.21	-0.016
859.53	-0.019
859.84	-0.018
860.16	-0.017
860.48	-0.021
860.79	-0.026
861.11	-0.025
861.43	-0.021
861.74	-0.015
862.06	-0.017
862.38	-0.016
862.69	-0.019
863.01	-0.019
863.33	-0.022
863.64	-0.021
863.96	-0.020
864.27	-0.015
864.59	-0.016
864.91	-0.015
865.22	-0.018
865.54	-0.017
865.85	-0.016
866.17	-0.017
866.49	-0.017
866.80	-0.016
867.12	-0.016
867.43	-0.018
867.75	-0.019
868.07	-0.020
868.38	-0.020
868.70	-0.019
869.01	-0.015
869.33	-0.011
869.64	-0.010
869.96	-0.011
870.27	-0.014
870.59	-0.012
870.90	-0.014
871.22	-0.012
871.53	-0.012
871.85	-0.011
872.16	-0.014
872.48	-0.017
872.79	-0.015
873.11	-0.013
873.42	-0.012
873.74	-0.014
874.05	-0.014
874.37	-0.017
874.68	-0.016
875.00	-0.016
875.31	-0.015
875.62	-0.012
875.94	-0.009
876.25	-0.009
876.57	-0.015
876.88	-0.019
877.20	-0.017
877.51	-0.012
877.82	-0.007
878.14	-0.006
878.45	-0.009
878.77	-0.012
879.08	-0.014
879.39	-0.015
879.71	-0.017
880.02	-0.017
880.33	-0.015
880.65	-0.013
880.96	-0.013
881.27	-0.014
881.59	-0.009
881.90	-0.008
882.21	-0.010
882.53	-0.013
882.84	-0.013
883.15	-0.009
883.47	-0.010
883.78	-0.012
884.09	-0.014
884.41	-0.016
884.72	-0.016
885.03	-0.018
885.34	-0.015
885.66	-0.014
885.97	-0.013
886.28	-0.010
886.59	-0.011
886.91	-0.010
887.22	-0.014
887.53	-0.009
887.84	-0.009
888.16	-0.008
888.47	-0.010
888.78	-0.010
889.09	-0.010
889.40	-0.011
889.72	-0.009
890.03	-0.009
890.34	-0.008
890.65	-0.010
890.96	-0.011
891.28	-0.011
891.59	-0.011
891.90	-0.011
892.21	-0.015
892.52	-0.014
892.83	-0.011
893.14	-0.007
893.46	-0.008
893.77	-0.013
894.08	-0.013
894.39	-0.013
894.70	-0.012
895.01	-0.013
895.32	-0.014
895.63	-0.012
895.95	-0.010
896.26	-0.010
896.57	-0.008
896.88	-0.011
897.19	-0.009
897.50	-0.010
897.81	-0.009
898.12	-0.008
898.43	-0.011
898.74	-0.007
899.05	-0.008
899.36	-0.009
899.67	-0.012
899.98	-0.014
900.29	-0.011
900.60	-0.011
900.91	-0.011
901.22	-0.010
901.53	-0.007
901.84	-0.009
902.15	-0.007
902.46	-0.010
902.77	-0.005
903.08	-0.005
903.39	-0.001
903.70	-0.005
904.01	-0.004
904.32	-0.005
904.63	-0.008
904.94	-0.009
905.25	-0.011
905.56	-0.006
905.87	-0.004
906.18	-0.005
906.48	-0.003
906.79	-0.001
907.10	-0.000
907.41	-0.001
907.72	-0.007
908.03	-0.005
908.34	-0.009
908.65	-0.007
908.96	-0.008
909.26	-0.003
909.57	-0.002
909.88	-0.001
910.19	-0.006
910.50	-0.004
910.81	-0.007
911.11	-0.005
911.42	-0.008
911.73	-0.010
912.04	-0.012
912.35	-0.011
912.66	-0.006
912.96	-0.002
913.27	-0.004
913.58	-0.006
913.89	-0.006
914.19	-0.004
914.50	-0.002
914.81	-0.003
915.12	-0.005
915.43	-0.005
915.73	-0.001
916.04	0.002
916.35	0.004
916.65	0.000
916.96	0.001
917.27	-0.001
917.58	0.004
917.88	0.005
918.19	0.008
918.50	0.006
918.80	0.007
919.11	0.005
919.42	0.006
919.73	0.010
920.03	0.009
920.34	0.009
920.65	0.004
920.95	0.003
921.26	-0.002
921.56	-0.003
921.87	-0.002
922.18	0.002
922.48	0.002
922.79	0.002
923.10	0.001
923.40	0.001
923.71	0.001
924.01	-0.001
924.32	0.003
924.63	0.004
924.93	0.004
925.24	0.003
925.54	0.008
925.85	0.006
926.16	0.004
926.46	-0.000
926.77	0.008
927.07	0.011
927.38	0.014
927.68	0.014
927.99	0.010
928.29	0.009
928.60	0.007
928.90	0.011
929.21	0.011
929.51	0.012
929.82	0.016
930.12	0.013
930.43	0.013
930.73	0.012
931.04	0.015
931.34	0.020
931.65	0.022
931.95	0.018
932.26	0.012
932.56	0.015
932.87	0.030
933.17	0.034
933.47	0.031
933.78	0.021
934.08	0.020
934.39	0.021
934.69	0.021
935.00	0.023
935.30	0.020
935.60	0.028
935.91	0.031
936.21	0.036
936.51	0.034
936.82	0.033
937.12	0.036
937.43	0.034
937.73	0.033
938.03	0.035
938.34	0.037
938.64	0.039
938.94	0.033
939.25	0.037
939.55	0.039
939.85	0.042
940.16	0.040
940.46	0.043
940.76	0.048
941.06	0.052
941.37	0.046
941.67	0.041
941.97	0.042
942.28	0.047
942.58	0.049
942.88	0.044
943.18	0.043
943.49	0.047
943.79	0.055
944.09	0.060
944.39	0.060
944.70	0.057
945.00	0.055
945.30	0.052
945.60	0.054
945.91	0.062
946.21	0.072
946.51	0.075
946.81	0.071
947.11	0.076
947.41	0.073
947.72	0.081
948.02	0.080
948.32	0.081
948.62	0.081
948.92	0.078
949.22	0.083
949.53	0.078
949.83	0.080
950.13	0.074
950.43	0.076
950.73	0.079
951.03	0.091
951.33	0.105
951.63	0.102
951.94	0.099
952.24	0.100
952.54	0.107
952.84	0.112
953.14	0.116
953.44	0.122
953.74	0.126
954.04	0.117
954.34	0.118
954.64	0.115
954.94	0.120
955.24	0.117
955.54	0.116
955.84	0.116
956.14	0.116
956.44	0.122
956.74	0.120
957.04	0.119
957.34	0.123
957.64	0.133
957.94	0.142
958.24	0.141
958.54	0.139
958.84	0.141
959.14	0.147
959.44	0.151
959.74	0.155
960.04	0.155
960.34	0.157
960.64	0.150
960.94	0.151
961.24	0.153
961.54	0.156
961.84	0.155
962.14	0.157
962.43	0.158
962.73	0.153
963.03	0.146
963.33	0.142
963.63	0.139
963.93	0.140
964.23	0.142
964.53	0.150
964.83	0.159
965.12	0.160
965.42	0.159
965.72	0.153
966.02	0.158
966.32	0.160
966.62	0.166
966.91	0.156
967.21	0.152
967.51	0.144
967.81	0.152
968.11	0.148
968.40	0.153
968.70	0.149
969.00	0.159
969.30	0.153
969.60	0.154
969.89	0.153
970.19	0.156
970.49	0.158
970.79	0.154
971.08	0.153
971.38	0.145
971.68	0.143
971.97	0.143
972.27	0.142
972.57	0.143
972.87	0.146
973.16	0.151
973.46	0.152
973.76	0.154
974.05	0.158
974.35	0.156
974.65	0.153
974.94	0.149
975.24	0.164
975.54	0.176
975.83	0.185
976.13	0.174
976.43	0.170
976.72	0.172
977.02	0.178
977.32	0.168
977.61	0.164
977.91	0.156
978.20	0.166
978.50	0.166
978.80	0.170
979.09	0.163
979.39	0.165
979.68	0.156
979.98	0.166
980.28	0.162
980.57	0.172
980.87	0.164
981.16	0.156
981.46	0.140
981.75	0.136
982.05	0.139
982.34	0.150
982.64	0.153
982.93	0.163
983.23	0.164
983.52	0.164
983.82	0.153
984.11	0.150
984.41	0.147
984.70	0.155
985.00	0.163
985.29	0.167
985.59	0.167
985.88	0.157
986.18	0.157
986.47	0.149
986.77	0.159
987.06	0.152
987.35	0.148
987.65	0.144
987.94	0.155
988.24	0.145
988.53	0.146
988.83	0.131
989.12	0.143
989.41	0.141
989.71	0.151
990.00	0.147
990.29	0.136
990.59	0.135
990.88	0.141
991.18	0.148
991.47	0.146
991.76	0.134
992.06	0.128
992.35	0.132
992.64	0.139
992.94	0.140
993.23	0.125
993.52	0.127
993.82	0.127
994.11	0.134
994.40	0.136
994.69	0.144
994.99	0.147
995.28	0.150
995.57	0.144
995.87	0.141
996.16	0.133
996.45	0.124
996.74	0.121
997.04	0.122
997.33	0.137
997.62	0.147
997.91	0.148
998.20	0.148
998.50	0.141
998.79	0.132
999.08	0.131
999.37	0.127
999.67	0.134
999.96	0.133
1000.25	0.131
1000.54	0.125
1000.83	0.114
1001.12	0.115
1001.42	0.116
1001.71	0.114
1002.00	0.129
1002.29	0.141
1002.58	0.146
1002.87	0.130
1003.16	0.129
1003.46	0.131
1003.75	0.139
1004.04	0.127
1004.33	0.126
1004.62	0.113
1004.91	0.096
1005.20	0.087
1005.49	0.092
1005.78	0.109
1006.07	0.122
1006.36	0.122
1006.65	0.108
1006.95	0.105
1007.24	0.116
1007.53	0.127
1007.82	0.127
1008.11	0.116
1008.40	0.110
1008.69	0.102
1008.98	0.090
1009.27	0.096
1009.56	0.094
1009.85	0.100
1010.14	0.104
1010.43	0.105
1010.72	0.107
1011.01	0.105
1011.30	0.111
1011.59	0.100
1011.88	0.103
1012.16	0.114
1012.45	0.119
1012.74	0.105
1013.03	0.090
1013.32	0.101
1013.61	0.105
1013.90	0.102
1014.19	0.110
1014.48	0.108
1014.77	0.099
1015.06	0.090
1015.35	0.095
1015.63	0.099
1015.92	0.092
1016.21	0.085
1016.50	0.102
1016.79	0.104
1017.08	0.112
1017.37	0.099
1017.65	0.096
1017.94	0.099
1018.23	0.099
1018.52	0.094
1018.81	0.073
1019.09	0.068
1019.38	0.079
1019.67	0.079
1019.96	0.067
1020.25	0.061
1020.53	0.079
1020.82	0.079
1021.11	0.062
1021.40	0.040
1021.69	0.045
1021.97	0.065
1022.26	0.079
1022.55	0.064
1022.83	0.044
1023.12	0.033
1023.41	0.034
1023.70	0.056
1023.98	0.057
1024.27	0.084
1024.56	0.079
1024.84	0.074
1025.13	0.048
1025.42	0.042
1025.71	0.051
1025.99	0.058
1026.28	0.043
1026.57	0.054
1026.85	0.054
1027.14	0.089
1027.42	0.082
1027.71	0.090
1028.00	0.072
1028.28	0.063
1028.57	0.083
1028.86	0.082
1029.14	0.078
1029.43	0.038
1029.71	0.047
1030.00	0.077
1030.29	0.098
1030.57	0.090
1030.86	0.040
1031.14	0.019
1031.43	0.003
1031.71	0.031
1032.00	0.059
1032.28	0.076
1032.57	0.088
1032.86	0.094
1033.14	0.099
1033.43	0.072
1033.71	0.040
1034.00	0.041
1034.28	0.064
1034.57	0.072
1034.85	0.029
1035.14	0.027
1035.42	0.045
1035.71	0.072
1035.99	0.052
1036.27	0.043
1036.56	0.040
1036.84	0.026
1037.13	0.033
1037.41	0.012
1037.70	0.032
1037.98	0.017
1038.27	0.017
1038.55	0.014
1038.83	0.012
1039.12	0.020
1039.40	0.028
1039.69	0.061
1039.97	0.093
1040.25	0.079
1040.54	0.033
1040.82	0.007
1041.10	0.014
1041.39	0.049
1041.67	0.039
1041.95	0.037
1042.24	0.012
1042.52	0.020
1042.80	0.027
1043.09	0.081
1043.37	0.081
1043.65	0.084
1043.94	0.058
1044.22	0.051
1044.50	0.028
1044.79	0.014
1045.07	0.011
1045.35	0.033
1045.63	0.036
1045.92	0.065
1046.20	0.041
1046.48	0.044
1046.76	0.007
1047.05	-0.020
1047.33	-0.025
1047.61	0.008
1047.89	0.056
1048.18	0.056
1048.46	0.020
1048.74	0.011
1049.02	0.008
1049.30	0.058
1049.59	0.083
1049.87	0.103
1050.15	0.083
1050.43	0.047
1050.71	0.058
1050.99	0.046
1051.28	0.046
1051.56	0.044
1051.84	0.115
>>>>>End Spectral Data<<<<<
